Raman Shift ; Dark Subtracted #1
-2.0000;3752.5560
-1.0000;3502.5360
0.0000;3104.7120
1.0000;2598.7660
2.0000;2036.0040
3.0000;1488.5830
4.0000;1037.7480
5.0000;658.7455
6.0000;403.7111
7.0000;315.1626
8.0000;251.7081
9.0000;212.7156
10.0000;228.2792
11.0000;210.7776
12.0000;126.8390
13.0000;43.0138
14.0000;-13.8401
15.0000;-23.8239
16.0000;-0.6138
17.0000;19.6754
18.0000;20.2613
19.0000;17.9455
20.0000;15.5951
21.0000;14.9295
22.0000;14.5915
23.0000;14.2773
24.0000;13.6701
25.0000;13.3325
26.0000;13.4524
27.0000;14.3555
28.0000;15.5911
29.0000;16.4382
30.0000;16.2756
31.0000;15.5008
32.0000;14.7607
33.0000;14.2738
34.0000;14.3232
35.0000;15.2733
36.0000;18.6866
37.0000;22.1370
38.0000;23.2336
39.0000;18.4457
40.0000;10.4274
41.0000;3.8497
42.0000;3.2288
43.0000;6.9347
44.0000;10.9567
45.0000;10.6469
46.0000;8.3616
47.0000;6.4910
48.0000;7.4177
49.0000;10.1883
50.0000;13.2145
51.0000;14.3854
52.0000;14.6278
53.0000;15.9091
54.0000;21.2171
55.0000;28.5059
56.0000;34.5563
57.0000;35.4859
58.0000;32.2938
59.0000;30.7031
60.0000;36.1361
61.0000;47.6668
62.0000;62.6419
63.0000;78.3240
64.0000;93.2027
65.0000;110.8812
66.0000;135.1151
67.0000;162.3684
68.0000;193.2604
69.0000;231.8787
70.0000;271.8809
71.0000;313.1727
72.0000;363.4730
73.0000;412.6051
74.0000;457.7849
75.0000;506.4593
76.0000;545.6666
77.0000;584.0053
78.0000;641.7444
79.0000;707.2007
80.0000;770.0552
81.0000;831.5753
82.0000;879.6542
83.0000;926.2808
84.0000;995.9703
85.0000;1077.4530
86.0000;1158.0210
87.0000;1241.3100
88.0000;1312.0660
89.0000;1379.1290
90.0000;1468.3770
91.0000;1566.1440
92.0000;1657.2380
93.0000;1749.4880
94.0000;1825.1250
95.0000;1893.1610
96.0000;1985.2790
97.0000;2089.1350
98.0000;2186.7200
99.0000;2289.2660
100.0000;2381.0880
101.0000;2452.4330
102.0000;2533.1350
103.0000;2608.5320
104.0000;2672.0970
105.0000;2740.7170
106.0000;2804.2220
107.0000;2863.0900
108.0000;2946.4210
109.0000;3040.2730
110.0000;3129.2690
111.0000;3220.5320
112.0000;3300.9410
113.0000;3362.7950
114.0000;3433.7800
115.0000;3503.2020
116.0000;3563.6790
117.0000;3632.4620
118.0000;3701.8110
119.0000;3760.2440
120.0000;3816.7270
121.0000;3862.6490
122.0000;3895.4370
123.0000;3930.6350
124.0000;3963.3400
125.0000;3995.3660
126.0000;4045.5550
127.0000;4111.4280
128.0000;4172.8180
129.0000;4218.2640
130.0000;4237.7440
131.0000;4242.5090
132.0000;4260.1280
133.0000;4290.3750
134.0000;4322.4790
135.0000;4355.9190
136.0000;4386.6730
137.0000;4411.7640
138.0000;4434.8130
139.0000;4452.3420
140.0000;4464.2900
141.0000;4481.6480
142.0000;4503.2150
143.0000;4523.7690
144.0000;4549.4990
145.0000;4575.5100
146.0000;4595.9370
147.0000;4611.0580
148.0000;4615.4740
149.0000;4614.6820
150.0000;4620.3030
151.0000;4632.5630
152.0000;4646.8660
153.0000;4665.0820
154.0000;4685.5840
155.0000;4701.0450
156.0000;4710.1880
157.0000;4708.7710
158.0000;4700.9240
159.0000;4694.4370
160.0000;4689.5170
161.0000;4688.3190
162.0000;4693.9640
163.0000;4706.9060
164.0000;4723.3520
165.0000;4738.1310
166.0000;4749.6450
167.0000;4757.9590
168.0000;4767.8750
169.0000;4775.9630
170.0000;4779.8010
171.0000;4777.3180
172.0000;4768.0360
173.0000;4762.9500
174.0000;4775.7370
175.0000;4805.7970
176.0000;4835.8770
177.0000;4851.7800
178.0000;4850.2130
179.0000;4845.9600
180.0000;4856.7970
181.0000;4879.8070
182.0000;4904.6800
183.0000;4928.2480
184.0000;4945.5240
185.0000;4957.7600
186.0000;4972.5170
187.0000;4983.0500
188.0000;4989.0260
189.0000;4993.0300
190.0000;4992.4610
191.0000;4991.4810
192.0000;4996.8130
193.0000;5005.6430
194.0000;5015.0720
195.0000;5023.5300
196.0000;5029.2910
197.0000;5031.7110
198.0000;5031.0880
199.0000;5026.8130
200.0000;5023.3460
201.0000;5025.8260
202.0000;5032.4670
203.0000;5039.5110
204.0000;5042.9390
205.0000;5044.1170
206.0000;5046.0830
207.0000;5051.2140
208.0000;5058.7750
209.0000;5068.9160
210.0000;5085.6310
211.0000;5101.7510
212.0000;5112.4350
213.0000;5109.9250
214.0000;5099.4970
215.0000;5094.4000
216.0000;5110.3540
217.0000;5136.2380
218.0000;5159.3730
219.0000;5171.2500
220.0000;5174.1940
221.0000;5177.2870
222.0000;5187.7600
223.0000;5199.9740
224.0000;5214.0100
225.0000;5230.4530
226.0000;5245.6060
227.0000;5261.3720
228.0000;5277.5580
229.0000;5291.5000
230.0000;5308.1660
231.0000;5331.2780
232.0000;5351.1820
233.0000;5363.3250
234.0000;5363.7120
235.0000;5355.2800
236.0000;5349.3140
237.0000;5350.1920
238.0000;5355.2600
239.0000;5364.4990
240.0000;5377.9450
241.0000;5392.8620
242.0000;5406.4860
243.0000;5417.2470
244.0000;5424.6170
245.0000;5431.9770
246.0000;5438.4170
247.0000;5444.7660
248.0000;5456.6950
249.0000;5473.9060
250.0000;5489.4970
251.0000;5501.3280
252.0000;5505.5990
253.0000;5505.8300
254.0000;5510.0190
255.0000;5517.0880
256.0000;5522.8970
257.0000;5526.6280
258.0000;5526.7850
259.0000;5524.1620
260.0000;5518.3440
261.0000;5511.0850
262.0000;5509.0980
263.0000;5520.4130
264.0000;5543.8070
265.0000;5569.0870
266.0000;5588.6850
267.0000;5599.2110
268.0000;5603.2950
269.0000;5606.8200
270.0000;5605.0550
271.0000;5601.1890
272.0000;5596.8130
273.0000;5594.1640
274.0000;5598.9640
275.0000;5617.7840
276.0000;5645.2040
277.0000;5671.4000
278.0000;5688.3430
279.0000;5696.9760
280.0000;5706.5900
281.0000;5728.1060
282.0000;5749.5200
283.0000;5767.8400
284.0000;5782.4900
285.0000;5788.8270
286.0000;5790.9490
287.0000;5789.4320
288.0000;5786.3080
289.0000;5791.4040
290.0000;5812.8920
291.0000;5836.3480
292.0000;5850.2480
293.0000;5846.7910
294.0000;5836.0580
295.0000;5832.8330
296.0000;5842.1360
297.0000;5855.2860
298.0000;5865.0870
299.0000;5868.5180
300.0000;5872.4070
301.0000;5886.7530
302.0000;5910.3800
303.0000;5932.0250
304.0000;5943.1790
305.0000;5940.0600
306.0000;5932.2930
307.0000;5933.6120
308.0000;5942.3950
309.0000;5951.2310
310.0000;5954.1070
311.0000;5952.2070
312.0000;5952.6080
313.0000;5963.4810
314.0000;5981.7550
315.0000;5999.4230
316.0000;6010.2530
317.0000;6015.4730
318.0000;6023.1030
319.0000;6045.7660
320.0000;6071.0710
321.0000;6091.7720
322.0000;6102.7380
323.0000;6103.7050
324.0000;6105.0280
325.0000;6115.0570
326.0000;6126.5880
327.0000;6138.8300
328.0000;6151.3420
329.0000;6161.8530
330.0000;6173.5160
331.0000;6187.6430
332.0000;6198.5710
333.0000;6204.3210
334.0000;6202.4950
335.0000;6198.6240
336.0000;6202.6500
337.0000;6216.7480
338.0000;6235.3650
339.0000;6255.0670
340.0000;6273.4770
341.0000;6288.9550
342.0000;6304.8460
343.0000;6317.8190
344.0000;6328.1220
345.0000;6343.7790
346.0000;6360.0130
347.0000;6370.7030
348.0000;6373.2460
349.0000;6367.0180
350.0000;6363.7310
351.0000;6379.2610
352.0000;6404.7230
353.0000;6423.5720
354.0000;6423.3570
355.0000;6408.3390
356.0000;6394.2190
357.0000;6393.4920
358.0000;6400.0380
359.0000;6408.9380
360.0000;6417.4800
361.0000;6425.0660
362.0000;6430.3510
363.0000;6430.9080
364.0000;6429.5630
365.0000;6432.2810
366.0000;6441.6960
367.0000;6452.6740
368.0000;6459.4150
369.0000;6459.1880
370.0000;6460.0440
371.0000;6473.4260
372.0000;6500.9240
373.0000;6526.6000
374.0000;6539.8600
375.0000;6535.8710
376.0000;6525.9940
377.0000;6524.1540
378.0000;6528.6550
379.0000;6537.7600
380.0000;6550.2560
381.0000;6566.1140
382.0000;6586.6450
383.0000;6619.2880
384.0000;6651.4360
385.0000;6675.0000
386.0000;6681.4710
387.0000;6673.1240
388.0000;6669.2440
389.0000;6687.2450
390.0000;6711.3980
391.0000;6728.9280
392.0000;6731.6950
393.0000;6727.2030
394.0000;6728.9550
395.0000;6742.7500
396.0000;6759.1070
397.0000;6770.6800
398.0000;6774.2370
399.0000;6774.6920
400.0000;6779.7670
401.0000;6789.5800
402.0000;6801.3870
403.0000;6817.3210
404.0000;6834.2110
405.0000;6847.7910
406.0000;6858.2500
407.0000;6861.6740
408.0000;6862.2490
409.0000;6864.3850
410.0000;6866.9300
411.0000;6874.2740
412.0000;6892.8510
413.0000;6916.0550
414.0000;6935.1140
415.0000;6941.8300
416.0000;6941.7070
417.0000;6948.7900
418.0000;6973.2620
419.0000;7000.3970
420.0000;7018.4940
421.0000;7020.3140
422.0000;7011.6430
423.0000;7004.2450
424.0000;7000.5950
425.0000;7000.2380
426.0000;7006.7610
427.0000;7020.5810
428.0000;7034.5670
429.0000;7042.0200
430.0000;7041.6340
431.0000;7041.5350
432.0000;7051.0800
433.0000;7066.8150
434.0000;7083.6460
435.0000;7101.2620
436.0000;7114.5140
437.0000;7120.0800
438.0000;7114.4200
439.0000;7102.0480
440.0000;7096.2440
441.0000;7108.3480
442.0000;7128.8050
443.0000;7147.1900
444.0000;7159.2540
445.0000;7164.9520
446.0000;7167.0590
447.0000;7164.4370
448.0000;7161.0400
449.0000;7164.1980
450.0000;7175.1360
451.0000;7190.2270
452.0000;7208.1900
453.0000;7226.0230
454.0000;7239.9000
455.0000;7250.5770
456.0000;7253.5660
457.0000;7252.8610
458.0000;7253.6060
459.0000;7253.7740
460.0000;7256.7640
461.0000;7265.0170
462.0000;7277.5010
463.0000;7293.8490
464.0000;7314.7690
465.0000;7334.3900
466.0000;7349.9050
467.0000;7357.4780
468.0000;7360.5320
469.0000;7369.6030
470.0000;7386.2100
471.0000;7402.6120
472.0000;7415.7760
473.0000;7422.6780
474.0000;7427.5420
475.0000;7438.8300
476.0000;7452.3790
477.0000;7464.1920
478.0000;7474.5370
479.0000;7479.5630
480.0000;7480.8000
481.0000;7478.7130
482.0000;7475.0060
483.0000;7477.7990
484.0000;7494.1670
485.0000;7515.4660
486.0000;7532.6600
487.0000;7539.5650
488.0000;7541.1840
489.0000;7547.4530
490.0000;7559.6400
491.0000;7571.2000
492.0000;7580.0880
493.0000;7583.9470
494.0000;7585.0600
495.0000;7587.5110
496.0000;7590.0580
497.0000;7594.3120
498.0000;7600.9940
499.0000;7610.7710
500.0000;7626.0000
501.0000;7652.9350
502.0000;7681.4060
503.0000;7703.8330
504.0000;7716.1770
505.0000;7715.6610
506.0000;7710.5180
507.0000;7703.0640
508.0000;7693.7360
509.0000;7689.8680
510.0000;7693.6130
511.0000;7701.2230
512.0000;7707.1020
513.0000;7711.2850
514.0000;7718.0340
515.0000;7731.1410
516.0000;7748.5920
517.0000;7768.5170
518.0000;7791.7550
519.0000;7811.7390
520.0000;7826.3800
521.0000;7836.4270
522.0000;7837.6520
523.0000;7837.6920
524.0000;7841.2470
525.0000;7843.4340
526.0000;7843.8170
527.0000;7840.9950
528.0000;7842.5360
529.0000;7859.0140
530.0000;7889.8430
531.0000;7920.8160
532.0000;7939.0420
533.0000;7941.4240
534.0000;7940.8680
535.0000;7954.0710
536.0000;7972.4940
537.0000;7991.2000
538.0000;8007.6430
539.0000;8020.1200
540.0000;8035.9430
541.0000;8060.9690
542.0000;8084.5930
543.0000;8100.9860
544.0000;8105.2500
545.0000;8106.6100
546.0000;8124.0660
547.0000;8157.4560
548.0000;8191.2750
549.0000;8217.1930
550.0000;8227.7210
551.0000;8230.0150
552.0000;8233.8510
553.0000;8234.6030
554.0000;8238.4000
555.0000;8251.5170
556.0000;8270.7460
557.0000;8293.5730
558.0000;8319.9280
559.0000;8345.2120
560.0000;8368.6910
561.0000;8388.5310
562.0000;8401.5450
563.0000;8415.2410
564.0000;8426.7800
565.0000;8429.0710
566.0000;8418.5530
567.0000;8395.9750
568.0000;8379.9610
569.0000;8387.8380
570.0000;8414.7730
571.0000;8441.3600
572.0000;8453.6370
573.0000;8456.2910
574.0000;8458.8210
575.0000;8466.7640
576.0000;8473.8570
577.0000;8481.3460
578.0000;8488.0230
579.0000;8492.9520
580.0000;8498.0970
581.0000;8502.0320
582.0000;8502.9160
583.0000;8501.6740
584.0000;8496.7840
585.0000;8489.3180
586.0000;8479.5380
587.0000;8469.5010
588.0000;8460.1910
589.0000;8452.1170
590.0000;8447.9140
591.0000;8446.3940
592.0000;8447.4780
593.0000;8451.1600
594.0000;8454.3940
595.0000;8456.2560
596.0000;8457.3890
597.0000;8457.3190
598.0000;8456.2220
599.0000;8456.7580
600.0000;8461.3110
601.0000;8469.0230
602.0000;8478.7240
603.0000;8490.2000
604.0000;8500.1720
605.0000;8508.1450
606.0000;8511.9890
607.0000;8513.4190
608.0000;8518.5990
609.0000;8529.1480
610.0000;8539.6480
611.0000;8546.0740
612.0000;8547.5960
613.0000;8550.8560
614.0000;8565.2100
615.0000;8586.1340
616.0000;8605.9020
617.0000;8620.8990
618.0000;8629.9180
619.0000;8640.5420
620.0000;8658.5400
621.0000;8675.9080
622.0000;8695.1810
623.0000;8714.6630
624.0000;8726.1490
625.0000;8727.4090
626.0000;8715.3690
627.0000;8703.9920
628.0000;8709.7360
629.0000;8729.7000
630.0000;8751.1380
631.0000;8765.8900
632.0000;8774.1300
633.0000;8781.3070
634.0000;8790.5870
635.0000;8798.3080
636.0000;8807.5590
637.0000;8818.2520
638.0000;8826.6520
639.0000;8832.0630
640.0000;8832.5090
641.0000;8830.9730
642.0000;8832.4590
643.0000;8835.6250
644.0000;8839.6770
645.0000;8845.2040
646.0000;8850.5630
647.0000;8854.0770
648.0000;8853.0300
649.0000;8852.1690
650.0000;8859.8380
651.0000;8880.1800
652.0000;8898.3340
653.0000;8899.1930
654.0000;8880.5200
655.0000;8861.9530
656.0000;8861.6310
657.0000;8877.5560
658.0000;8898.0000
659.0000;8915.6230
660.0000;8928.3620
661.0000;8934.3290
662.0000;8932.2340
663.0000;8922.4480
664.0000;8912.3040
665.0000;8904.0520
666.0000;8899.7810
667.0000;8902.5680
668.0000;8912.6210
669.0000;8923.3390
670.0000;8926.8150
671.0000;8924.1330
672.0000;8920.3270
673.0000;8919.6070
674.0000;8919.9010
675.0000;8920.7940
676.0000;8921.9810
677.0000;8924.0220
678.0000;8926.9650
679.0000;8930.5920
680.0000;8934.8770
681.0000;8940.3410
682.0000;8946.1460
683.0000;8952.6130
684.0000;8961.4780
685.0000;8969.9260
686.0000;8977.3800
687.0000;8983.5380
688.0000;8987.3140
689.0000;8991.8200
690.0000;8997.3530
691.0000;9002.4560
692.0000;9007.6310
693.0000;9012.1460
694.0000;9018.4880
695.0000;9027.3160
696.0000;9039.8850
697.0000;9061.3390
698.0000;9101.3160
699.0000;9144.0620
700.0000;9177.2800
701.0000;9191.3630
702.0000;9190.8730
703.0000;9195.8360
704.0000;9206.6050
705.0000;9215.5970
706.0000;9219.0890
707.0000;9218.6110
708.0000;9226.4710
709.0000;9261.1140
710.0000;9304.3520
711.0000;9334.2040
712.0000;9334.1640
713.0000;9316.2050
714.0000;9305.8530
715.0000;9311.2140
716.0000;9323.3500
717.0000;9338.7510
718.0000;9355.7980
719.0000;9371.0340
720.0000;9383.4020
721.0000;9389.1750
722.0000;9392.6160
723.0000;9400.2340
724.0000;9402.6320
725.0000;9395.1510
726.0000;9373.9250
727.0000;9353.1400
728.0000;9350.1020
729.0000;9367.6870
730.0000;9392.4130
731.0000;9409.5100
732.0000;9420.3800
733.0000;9431.0020
734.0000;9448.5500
735.0000;9463.0810
736.0000;9472.0010
737.0000;9471.5640
738.0000;9467.7800
739.0000;9473.8310
740.0000;9490.3130
741.0000;9506.9490
742.0000;9515.9750
743.0000;9515.8460
744.0000;9511.0000
745.0000;9503.6450
746.0000;9496.7210
747.0000;9498.6940
748.0000;9516.9890
749.0000;9537.1270
750.0000;9544.5640
751.0000;9534.5210
752.0000;9518.1630
753.0000;9508.3090
754.0000;9504.9010
755.0000;9507.2000
756.0000;9515.1190
757.0000;9526.8630
758.0000;9535.4630
759.0000;9536.0520
760.0000;9531.4530
761.0000;9525.4620
762.0000;9519.2720
763.0000;9516.1560
764.0000;9519.2960
765.0000;9529.3270
766.0000;9543.6000
767.0000;9560.5280
768.0000;9576.0800
769.0000;9587.0430
770.0000;9588.8950
771.0000;9586.7490
772.0000;9591.5850
773.0000;9604.3890
774.0000;9621.6540
775.0000;9642.6010
776.0000;9663.6650
777.0000;9679.6000
778.0000;9691.8750
779.0000;9694.8340
780.0000;9696.0510
781.0000;9698.9440
782.0000;9699.0440
783.0000;9696.6600
784.0000;9691.9420
785.0000;9690.1800
786.0000;9697.4060
787.0000;9712.3450
788.0000;9727.5970
789.0000;9738.8130
790.0000;9745.7730
791.0000;9753.4040
792.0000;9761.9980
793.0000;9770.8760
794.0000;9782.4880
795.0000;9796.0820
796.0000;9811.7090
797.0000;9834.6330
798.0000;9858.7370
799.0000;9881.0370
800.0000;9903.5700
801.0000;9918.9090
802.0000;9933.4300
803.0000;9945.6200
804.0000;9954.5040
805.0000;9969.0620
806.0000;9984.3090
807.0000;9993.0790
808.0000;9991.3050
809.0000;9979.1560
810.0000;9968.2880
811.0000;9967.2710
812.0000;9970.4670
813.0000;9972.2710
814.0000;9971.4100
815.0000;9969.3740
816.0000;9963.4070
817.0000;9956.6180
818.0000;9959.3070
819.0000;9982.8030
820.0000;10016.3800
821.0000;10040.1400
822.0000;10041.2000
823.0000;10030.4500
824.0000;10025.2300
825.0000;10027.9300
826.0000;10038.0400
827.0000;10058.2100
828.0000;10084.6900
829.0000;10112.1900
830.0000;10140.7200
831.0000;10157.6800
832.0000;10160.5400
833.0000;10144.8600
834.0000;10120.6400
835.0000;10104.8300
836.0000;10101.4600
837.0000;10109.8100
838.0000;10134.5900
839.0000;10165.8700
840.0000;10180.0700
841.0000;10157.8600
842.0000;10123.2000
843.0000;10112.5200
844.0000;10135.6600
845.0000;10166.2600
846.0000;10175.7100
847.0000;10166.2900
848.0000;10154.7000
849.0000;10154.9600
850.0000;10160.1100
851.0000;10165.5300
852.0000;10168.2000
853.0000;10173.3000
854.0000;10187.4800
855.0000;10207.9000
856.0000;10224.4600
857.0000;10225.9100
858.0000;10215.8900
859.0000;10211.5400
860.0000;10224.1700
861.0000;10245.4500
862.0000;10269.7100
863.0000;10292.5300
864.0000;10310.3900
865.0000;10319.0900
866.0000;10317.2400
867.0000;10320.2900
868.0000;10346.7600
869.0000;10379.7500
870.0000;10405.5600
871.0000;10415.1300
872.0000;10415.8000
873.0000;10423.3900
874.0000;10434.8400
875.0000;10445.2500
876.0000;10455.9000
877.0000;10462.5100
878.0000;10464.7100
879.0000;10461.6200
880.0000;10455.7700
881.0000;10453.8200
882.0000;10457.5500
883.0000;10466.3000
884.0000;10478.4400
885.0000;10494.1100
886.0000;10513.9600
887.0000;10541.4500
888.0000;10566.1600
889.0000;10582.4700
890.0000;10584.3100
891.0000;10583.4700
892.0000;10600.5900
893.0000;10630.3300
894.0000;10660.6000
895.0000;10686.0400
896.0000;10702.3100
897.0000;10717.3500
898.0000;10732.9400
899.0000;10742.1900
900.0000;10747.4900
901.0000;10747.0100
902.0000;10749.3200
903.0000;10767.1300
904.0000;10792.8400
905.0000;10814.9900
906.0000;10826.5000
907.0000;10833.2700
908.0000;10849.0800
909.0000;10873.0000
910.0000;10896.8500
911.0000;10919.5900
912.0000;10935.7500
913.0000;10948.2100
914.0000;10959.8800
915.0000;10968.7100
916.0000;10986.5600
917.0000;11014.3000
918.0000;11034.0200
919.0000;11030.8600
920.0000;11006.7300
921.0000;10984.7600
922.0000;10983.2600
923.0000;10995.9800
924.0000;11011.6700
925.0000;11026.3900
926.0000;11045.9600
927.0000;11077.6400
928.0000;11115.1300
929.0000;11143.4000
930.0000;11157.9200
931.0000;11155.9600
932.0000;11154.9600
933.0000;11161.0100
934.0000;11169.5300
935.0000;11185.8300
936.0000;11205.4200
937.0000;11218.8200
938.0000;11217.5700
939.0000;11205.8600
940.0000;11202.6400
941.0000;11218.8500
942.0000;11236.2700
943.0000;11234.4700
944.0000;11213.0200
945.0000;11193.0200
946.0000;11192.8200
947.0000;11209.4800
948.0000;11235.1400
949.0000;11263.8900
950.0000;11292.3200
951.0000;11317.8600
952.0000;11333.0400
953.0000;11341.2600
954.0000;11349.8500
955.0000;11354.9100
956.0000;11367.7600
957.0000;11397.1100
958.0000;11424.2800
959.0000;11434.7000
960.0000;11421.8500
961.0000;11403.4400
962.0000;11401.7400
963.0000;11409.9000
964.0000;11418.8600
965.0000;11421.3800
966.0000;11424.2100
967.0000;11434.0000
968.0000;11450.9300
969.0000;11465.6600
970.0000;11469.6500
971.0000;11466.7100
972.0000;11472.9900
973.0000;11497.6900
974.0000;11531.5100
975.0000;11570.8300
976.0000;11607.1100
977.0000;11634.3200
978.0000;11654.0600
979.0000;11656.4300
980.0000;11648.8700
981.0000;11635.1500
982.0000;11621.3800
983.0000;11622.7900
984.0000;11643.9800
985.0000;11677.1900
986.0000;11718.4700
987.0000;11759.9100
988.0000;11799.6700
989.0000;11832.7900
990.0000;11854.2800
991.0000;11877.0400
992.0000;11895.3900
993.0000;11904.7400
994.0000;11905.5300
995.0000;11899.5200
996.0000;11907.5200
997.0000;11943.3500
998.0000;11986.7500
999.0000;12017.6400
1000.0000;12028.4700
1001.0000;12026.1200
1002.0000;12022.5800
1003.0000;12014.4900
1004.0000;12014.4300
1005.0000;12030.2000
1006.0000;12051.8200
1007.0000;12069.3700
1008.0000;12078.2100
1009.0000;12079.5700
1010.0000;12072.4000
1011.0000;12061.7200
1012.0000;12063.7500
1013.0000;12089.3700
1014.0000;12120.3800
1015.0000;12141.8100
1016.0000;12147.2200
1017.0000;12144.1200
1018.0000;12141.1100
1019.0000;12135.4600
1020.0000;12135.8800
1021.0000;12146.9300
1022.0000;12159.5100
1023.0000;12163.4800
1024.0000;12159.5000
1025.0000;12161.6300
1026.0000;12186.5300
1027.0000;12216.6100
1028.0000;12229.4400
1029.0000;12213.1900
1030.0000;12192.5600
1031.0000;12197.0600
1032.0000;12222.6400
1033.0000;12249.9800
1034.0000;12265.5100
1035.0000;12272.5000
1036.0000;12277.8800
1037.0000;12281.4100
1038.0000;12287.4000
1039.0000;12307.2200
1040.0000;12333.9000
1041.0000;12356.7100
1042.0000;12368.3200
1043.0000;12371.4600
1044.0000;12376.9800
1045.0000;12385.0700
1046.0000;12400.2600
1047.0000;12433.0900
1048.0000;12473.3600
1049.0000;12509.8300
1050.0000;12534.1900
1051.0000;12547.6000
1052.0000;12565.6800
1053.0000;12583.9900
1054.0000;12597.4100
1055.0000;12610.1500
1056.0000;12616.0800
1057.0000;12620.6800
1058.0000;12624.4700
1059.0000;12630.8400
1060.0000;12648.8400
1061.0000;12675.0900
1062.0000;12701.3600
1063.0000;12725.6300
1064.0000;12740.3600
1065.0000;12747.1800
1066.0000;12743.1300
1067.0000;12741.0500
1068.0000;12760.4300
1069.0000;12794.5900
1070.0000;12830.3800
1071.0000;12860.0100
1072.0000;12880.6100
1073.0000;12899.4400
1074.0000;12912.0700
1075.0000;12921.4300
1076.0000;12940.4500
1077.0000;12958.3700
1078.0000;12971.8300
1079.0000;12977.4500
1080.0000;12978.8100
1081.0000;12983.6000
1082.0000;12993.4000
1083.0000;13016.4700
1084.0000;13068.0800
1085.0000;13124.5600
1086.0000;13162.5900
1087.0000;13167.0900
1088.0000;13159.1300
1089.0000;13173.6500
1090.0000;13199.6600
1091.0000;13225.9800
1092.0000;13246.0300
1093.0000;13257.6900
1094.0000;13267.1100
1095.0000;13271.5500
1096.0000;13273.2900
1097.0000;13283.4100
1098.0000;13291.9100
1099.0000;13290.7100
1100.0000;13273.6700
1101.0000;13256.7900
1102.0000;13259.7800
1103.0000;13282.9600
1104.0000;13305.6800
1105.0000;13314.3400
1106.0000;13312.2900
1107.0000;13306.5800
1108.0000;13298.5100
1109.0000;13291.6200
1110.0000;13290.8500
1111.0000;13297.2300
1112.0000;13308.0900
1113.0000;13323.7900
1114.0000;13336.0400
1115.0000;13336.8600
1116.0000;13323.4700
1117.0000;13304.8700
1118.0000;13285.7800
1119.0000;13272.5500
1120.0000;13273.7300
1121.0000;13294.3100
1122.0000;13317.1700
1123.0000;13318.3200
1124.0000;13301.5800
1125.0000;13285.0200
1126.0000;13282.6600
1127.0000;13285.8900
1128.0000;13284.6100
1129.0000;13279.1400
1130.0000;13278.6200
1131.0000;13292.2000
1132.0000;13311.6200
1133.0000;13324.7800
1134.0000;13325.1700
1135.0000;13315.3300
1136.0000;13303.3300
1137.0000;13287.4600
1138.0000;13264.2100
1139.0000;13225.6700
1140.0000;13193.7000
1141.0000;13181.3300
1142.0000;13197.2100
1143.0000;13225.5700
1144.0000;13245.9800
1145.0000;13260.4200
1146.0000;13268.1400
1147.0000;13266.1300
1148.0000;13258.1100
1149.0000;13254.0500
1150.0000;13253.9500
1151.0000;13258.4700
1152.0000;13270.8900
1153.0000;13283.3300
1154.0000;13286.5500
1155.0000;13277.5300
1156.0000;13266.9200
1157.0000;13268.2400
1158.0000;13274.7100
1159.0000;13274.6100
1160.0000;13261.6600
1161.0000;13251.2400
1162.0000;13259.4800
1163.0000;13281.9500
1164.0000;13298.3700
1165.0000;13290.0800
1166.0000;13274.2800
1167.0000;13276.8200
1168.0000;13299.5900
1169.0000;13321.1400
1170.0000;13319.3800
1171.0000;13305.5900
1172.0000;13303.5200
1173.0000;13322.3500
1174.0000;13343.4000
1175.0000;13344.1600
1176.0000;13331.9200
1177.0000;13335.2700
1178.0000;13374.3200
1179.0000;13422.5800
1180.0000;13449.7600
1181.0000;13448.4300
1182.0000;13442.0000
1183.0000;13458.5600
1184.0000;13478.0000
1185.0000;13492.7400
1186.0000;13497.0400
1187.0000;13491.7100
1188.0000;13478.1600
1189.0000;13460.2300
1190.0000;13452.2700
1191.0000;13463.1300
1192.0000;13482.9600
1193.0000;13494.9600
1194.0000;13499.9900
1195.0000;13509.4400
1196.0000;13532.7400
1197.0000;13559.4300
1198.0000;13586.4900
1199.0000;13607.7300
1200.0000;13624.3700
1201.0000;13646.2000
1202.0000;13662.0300
1203.0000;13671.7000
1204.0000;13673.3000
1205.0000;13668.2200
1206.0000;13663.8600
1207.0000;13660.6200
1208.0000;13663.9000
1209.0000;13676.2000
1210.0000;13696.9600
1211.0000;13726.7800
1212.0000;13761.1000
1213.0000;13783.8300
1214.0000;13783.5800
1215.0000;13767.5500
1216.0000;13763.3800
1217.0000;13777.0300
1218.0000;13798.3500
1219.0000;13821.5600
1220.0000;13842.5100
1221.0000;13859.1800
1222.0000;13868.3300
1223.0000;13870.6000
1224.0000;13874.3900
1225.0000;13877.3700
1226.0000;13883.7200
1227.0000;13900.5400
1228.0000;13913.7200
1229.0000;13909.6300
1230.0000;13887.2200
1231.0000;13867.7600
1232.0000;13870.2700
1233.0000;13885.2000
1234.0000;13896.3400
1235.0000;13899.2600
1236.0000;13899.7200
1237.0000;13901.4000
1238.0000;13903.6200
1239.0000;13909.3500
1240.0000;13919.3900
1241.0000;13931.9200
1242.0000;13950.9600
1243.0000;13967.7900
1244.0000;13968.8000
1245.0000;13941.6300
1246.0000;13911.8700
1247.0000;13914.2400
1248.0000;13949.5500
1249.0000;13986.9400
1250.0000;14006.2800
1251.0000;14007.7700
1252.0000;13995.3900
1253.0000;13968.7100
1254.0000;13945.4900
1255.0000;13943.9500
1256.0000;13959.7500
1257.0000;13976.4200
1258.0000;13988.5100
1259.0000;14000.3100
1260.0000;14017.4500
1261.0000;14031.8900
1262.0000;14038.4700
1263.0000;14032.9200
1264.0000;14023.1600
1265.0000;14025.2400
1266.0000;14035.3800
1267.0000;14041.9100
1268.0000;14034.1300
1269.0000;14029.1300
1270.0000;14045.8700
1271.0000;14085.0000
1272.0000;14127.0600
1273.0000;14164.7500
1274.0000;14188.0600
1275.0000;14197.5000
1276.0000;14187.7900
1277.0000;14178.0300
1278.0000;14193.2800
1279.0000;14218.8200
1280.0000;14241.2600
1281.0000;14252.6300
1282.0000;14257.7000
1283.0000;14264.6000
1284.0000;14267.9900
1285.0000;14270.5600
1286.0000;14272.8800
1287.0000;14276.5500
1288.0000;14284.3600
1289.0000;14296.2300
1290.0000;14314.6800
1291.0000;14340.2700
1292.0000;14368.4800
1293.0000;14397.3400
1294.0000;14421.3100
1295.0000;14444.7100
1296.0000;14472.3200
1297.0000;14491.3900
1298.0000;14504.9400
1299.0000;14506.3300
1300.0000;14498.3700
1301.0000;14479.2200
1302.0000;14465.5600
1303.0000;14484.9500
1304.0000;14539.7300
1305.0000;14592.8000
1306.0000;14615.2900
1307.0000;14610.1000
1308.0000;14603.0400
1309.0000;14598.1100
1310.0000;14595.6100
1311.0000;14602.8900
1312.0000;14616.6100
1313.0000;14631.0700
1314.0000;14641.9000
1315.0000;14652.1500
1316.0000;14667.0600
1317.0000;14681.6800
1318.0000;14698.8600
1319.0000;14718.2900
1320.0000;14730.5000
1321.0000;14730.1700
1322.0000;14717.4000
1323.0000;14708.7700
1324.0000;14713.3100
1325.0000;14725.8400
1326.0000;14743.0400
1327.0000;14761.7400
1328.0000;14779.0600
1329.0000;14791.5800
1330.0000;14797.6700
1331.0000;14802.8900
1332.0000;14805.0300
1333.0000;14806.4700
1334.0000;14811.3800
1335.0000;14815.9200
1336.0000;14817.1600
1337.0000;14816.0000
1338.0000;14822.9600
1339.0000;14851.4900
1340.0000;14882.5900
1341.0000;14898.6600
1342.0000;14891.3100
1343.0000;14876.6000
1344.0000;14869.9600
1345.0000;14867.1900
1346.0000;14869.0800
1347.0000;14876.5800
1348.0000;14884.4900
1349.0000;14888.4300
1350.0000;14888.2600
1351.0000;14886.5500
1352.0000;14883.4800
1353.0000;14880.1900
1354.0000;14877.0900
1355.0000;14876.6700
1356.0000;14882.0700
1357.0000;14894.0400
1358.0000;14905.4600
1359.0000;14908.0800
1360.0000;14903.8800
1361.0000;14900.0200
1362.0000;14897.8700
1363.0000;14910.5800
1364.0000;14959.3400
1365.0000;15022.7900
1366.0000;15054.6100
1367.0000;15028.9500
1368.0000;14984.5400
1369.0000;14964.2000
1370.0000;14967.8400
1371.0000;14988.3600
1372.0000;15024.6700
1373.0000;15062.1400
1374.0000;15087.8200
1375.0000;15093.9100
1376.0000;15090.1900
1377.0000;15079.8900
1378.0000;15068.3300
1379.0000;15068.8300
1380.0000;15080.5300
1381.0000;15092.5800
1382.0000;15096.4500
1383.0000;15107.1700
1384.0000;15141.6400
1385.0000;15191.7100
1386.0000;15235.2500
1387.0000;15258.5700
1388.0000;15264.7700
1389.0000;15274.2400
1390.0000;15279.2100
1391.0000;15281.6200
1392.0000;15283.8400
1393.0000;15285.6400
1394.0000;15292.5500
1395.0000;15302.6100
1396.0000;15311.2100
1397.0000;15312.7700
1398.0000;15318.9200
1399.0000;15345.5300
1400.0000;15387.3100
1401.0000;15429.8700
1402.0000;15465.2500
1403.0000;15485.7800
1404.0000;15498.7400
1405.0000;15496.6500
1406.0000;15489.4900
1407.0000;15482.5900
1408.0000;15483.7700
1409.0000;15508.0900
1410.0000;15551.3000
1411.0000;15594.2300
1412.0000;15625.6400
1413.0000;15640.4200
1414.0000;15641.6700
1415.0000;15629.5300
1416.0000;15633.6500
1417.0000;15676.2800
1418.0000;15727.2400
1419.0000;15763.7800
1420.0000;15774.4900
1421.0000;15763.4300
1422.0000;15730.6700
1423.0000;15695.8000
1424.0000;15691.6600
1425.0000;15717.7000
1426.0000;15744.8100
1427.0000;15752.6900
1428.0000;15762.8600
1429.0000;15804.7700
1430.0000;15858.8200
1431.0000;15888.8300
1432.0000;15871.8100
1433.0000;15835.3200
1434.0000;15822.5000
1435.0000;15829.4300
1436.0000;15839.5400
1437.0000;15844.3500
1438.0000;15851.2600
1439.0000;15866.2000
1440.0000;15882.9600
1441.0000;15891.6100
1442.0000;15885.3100
1443.0000;15874.2900
1444.0000;15873.9000
1445.0000;15880.3500
1446.0000;15882.9900
1447.0000;15876.9300
1448.0000;15874.4100
1449.0000;15889.4300
1450.0000;15913.4200
1451.0000;15929.2000
1452.0000;15927.5900
1453.0000;15922.2500
1454.0000;15932.9500
1455.0000;15948.9300
1456.0000;15957.4800
1457.0000;15952.3500
1458.0000;15942.4400
1459.0000;15933.6000
1460.0000;15931.1900
1461.0000;15943.6400
1462.0000;15974.5000
1463.0000;16006.6500
1464.0000;16031.6800
1465.0000;16041.5500
1466.0000;16036.5000
1467.0000;16015.3500
1468.0000;16000.8000
1469.0000;16024.0000
1470.0000;16059.7800
1471.0000;16072.4700
1472.0000;16052.5200
1473.0000;16027.4100
1474.0000;16019.2900
1475.0000;16023.8700
1476.0000;16035.5800
1477.0000;16055.0600
1478.0000;16081.4800
1479.0000;16109.9000
1480.0000;16139.4800
1481.0000;16178.9600
1482.0000;16217.9700
1483.0000;16234.5200
1484.0000;16214.5000
1485.0000;16181.6100
1486.0000;16181.4700
1487.0000;16210.0900
1488.0000;16233.3200
1489.0000;16228.7900
1490.0000;16217.0100
1491.0000;16221.5600
1492.0000;16237.7500
1493.0000;16250.3100
1494.0000;16250.0100
1495.0000;16255.9300
1496.0000;16293.1100
1497.0000;16345.0900
1498.0000;16387.7000
1499.0000;16403.7400
1500.0000;16401.9600
1501.0000;16398.4500
1502.0000;16392.5600
1503.0000;16403.7800
1504.0000;16438.3200
1505.0000;16477.0400
1506.0000;16514.6800
1507.0000;16535.9700
1508.0000;16537.2300
1509.0000;16513.4600
1510.0000;16494.9900
1511.0000;16512.4700
1512.0000;16547.8100
1513.0000;16576.2300
1514.0000;16592.5600
1515.0000;16604.4800
1516.0000;16616.8500
1517.0000;16628.0600
1518.0000;16649.9500
1519.0000;16676.4600
1520.0000;16701.3700
1521.0000;16721.6500
1522.0000;16728.3700
1523.0000;16717.2200
1524.0000;16695.7900
1525.0000;16703.8800
1526.0000;16763.7100
1527.0000;16827.2700
1528.0000;16849.7700
1529.0000;16839.0800
1530.0000;16847.8500
1531.0000;16890.1700
1532.0000;16935.4600
1533.0000;16967.1800
1534.0000;16978.3700
1535.0000;16984.0400
1536.0000;16982.1000
1537.0000;16966.1900
1538.0000;16931.8900
1539.0000;16898.4100
1540.0000;16890.9100
1541.0000;16916.7800
1542.0000;16953.4700
1543.0000;16986.8600
1544.0000;17013.4500
1545.0000;17033.3400
1546.0000;17038.0800
1547.0000;17032.6300
1548.0000;17018.9400
1549.0000;17008.1200
1550.0000;17015.2700
1551.0000;17040.4700
1552.0000;17079.8300
1553.0000;17128.8000
1554.0000;17168.6700
1555.0000;17188.2200
1556.0000;17183.6800
1557.0000;17183.3600
1558.0000;17191.1800
1559.0000;17193.1200
1560.0000;17182.3400
1561.0000;17166.3700
1562.0000;17157.7500
1563.0000;17159.8500
1564.0000;17166.9700
1565.0000;17176.9400
1566.0000;17183.2800
1567.0000;17177.2300
1568.0000;17158.6200
1569.0000;17134.7600
1570.0000;17108.3000
1571.0000;17097.2000
1572.0000;17119.8300
1573.0000;17164.1500
1574.0000;17187.3700
1575.0000;17171.0000
1576.0000;17145.6800
1577.0000;17140.4400
1578.0000;17148.5200
1579.0000;17164.8600
1580.0000;17186.2000
1581.0000;17201.8000
1582.0000;17198.8200
1583.0000;17192.3000
1584.0000;17210.4200
1585.0000;17247.4500
1586.0000;17274.9200
1587.0000;17273.9400
1588.0000;17264.7600
1589.0000;17278.1100
1590.0000;17304.6900
1591.0000;17330.6100
1592.0000;17348.2700
1593.0000;17363.1900
1594.0000;17387.8700
1595.0000;17409.2700
1596.0000;17426.9000
1597.0000;17436.4500
1598.0000;17444.6500
1599.0000;17466.0100
1600.0000;17479.9900
1601.0000;17474.0200
1602.0000;17449.0700
1603.0000;17429.9600
1604.0000;17431.8500
1605.0000;17451.1100
1606.0000;17485.8100
1607.0000;17527.5100
1608.0000;17553.1600
1609.0000;17551.5700
1610.0000;17539.2100
1611.0000;17539.6900
1612.0000;17544.8400
1613.0000;17554.5400
1614.0000;17568.4600
1615.0000;17584.1800
1616.0000;17602.2300
1617.0000;17615.5000
1618.0000;17619.6900
1619.0000;17615.1200
1620.0000;17617.0900
1621.0000;17632.5000
1622.0000;17658.6900
1623.0000;17696.2800
1624.0000;17734.9700
1625.0000;17764.3100
1626.0000;17774.6300
1627.0000;17788.4100
1628.0000;17841.7000
1629.0000;17892.1800
1630.0000;17911.2000
1631.0000;17889.9700
1632.0000;17864.1500
1633.0000;17855.1200
1634.0000;17865.4300
1635.0000;17912.0800
1636.0000;17975.4400
1637.0000;18011.8300
1638.0000;17996.5800
1639.0000;17966.4900
1640.0000;17964.8500
1641.0000;17977.1100
1642.0000;17994.5900
1643.0000;18014.9700
1644.0000;18029.8000
1645.0000;18031.4900
1646.0000;18029.9000
1647.0000;18051.0900
1648.0000;18079.6300
1649.0000;18080.7200
1650.0000;18035.7300
1651.0000;17991.1500
1652.0000;17988.2200
1653.0000;18016.3300
1654.0000;18047.0700
1655.0000;18070.6400
1656.0000;18079.8700
1657.0000;18062.8000
1658.0000;18037.9400
1659.0000;18041.6700
1660.0000;18064.8800
1661.0000;18063.1800
1662.0000;18015.2400
1663.0000;17970.6300
1664.0000;17973.5600
1665.0000;18007.9900
1666.0000;18027.9000
1667.0000;18023.2700
1668.0000;18002.0000
1669.0000;17963.3300
1670.0000;17929.9500
1671.0000;17932.4800
1672.0000;17972.2700
1673.0000;18015.4200
1674.0000;18046.9400
1675.0000;18066.1100
1676.0000;18071.4800
1677.0000;18067.9900
1678.0000;18089.7900
1679.0000;18138.0100
1680.0000;18179.8600
1681.0000;18198.3500
1682.0000;18197.4600
1683.0000;18200.1400
1684.0000;18201.4300
1685.0000;18205.6100
1686.0000;18215.2400
1687.0000;18224.2600
1688.0000;18228.2900
1689.0000;18229.8000
1690.0000;18239.2700
1691.0000;18255.2400
1692.0000;18264.6700
1693.0000;18260.0000
1694.0000;18246.6800
1695.0000;18236.9800
1696.0000;18229.2000
1697.0000;18215.0800
1698.0000;18193.8200
1699.0000;18184.8000
1700.0000;18204.0100
1701.0000;18235.9100
1702.0000;18247.8300
1703.0000;18237.1400
1704.0000;18231.3700
1705.0000;18246.9100
1706.0000;18261.5300
1707.0000;18255.6900
1708.0000;18234.1200
1709.0000;18212.3300
1710.0000;18197.4800
1711.0000;18197.1100
1712.0000;18218.4100
1713.0000;18247.9300
1714.0000;18262.0000
1715.0000;18256.5300
1716.0000;18242.5000
1717.0000;18224.1900
1718.0000;18210.8000
1719.0000;18216.5900
1720.0000;18232.1400
1721.0000;18232.7300
1722.0000;18215.5400
1723.0000;18199.3000
1724.0000;18191.8000
1725.0000;18202.1800
1726.0000;18241.4800
1727.0000;18297.6300
1728.0000;18330.4600
1729.0000;18324.4900
1730.0000;18318.2400
1731.0000;18354.8800
1732.0000;18398.2700
1733.0000;18416.6200
1734.0000;18408.1300
1735.0000;18410.1700
1736.0000;18441.1400
1737.0000;18476.7100
1738.0000;18501.0600
1739.0000;18511.2400
1740.0000;18517.5100
1741.0000;18518.2400
1742.0000;18521.0500
1743.0000;18534.9400
1744.0000;18549.7800
1745.0000;18560.5100
1746.0000;18565.7000
1747.0000;18572.0700
1748.0000;18580.3200
1749.0000;18589.7100
1750.0000;18602.4400
1751.0000;18615.4500
1752.0000;18634.0100
1753.0000;18649.6400
1754.0000;18651.8200
1755.0000;18634.1300
1756.0000;18618.5000
1757.0000;18629.8900
1758.0000;18657.2300
1759.0000;18684.3700
1760.0000;18704.8500
1761.0000;18713.5100
1762.0000;18704.2900
1763.0000;18699.1700
1764.0000;18734.1900
1765.0000;18786.1000
1766.0000;18817.1900
1767.0000;18813.1400
1768.0000;18805.0000
1769.0000;18817.3200
1770.0000;18831.4000
1771.0000;18840.5600
1772.0000;18842.1200
1773.0000;18839.5400
1774.0000;18833.2300
1775.0000;18831.8700
1776.0000;18845.8900
1777.0000;18862.6600
1778.0000;18864.1800
1779.0000;18852.2800
1780.0000;18848.0100
1781.0000;18860.1300
1782.0000;18863.8000
1783.0000;18832.3600
1784.0000;18794.8700
1785.0000;18791.0600
1786.0000;18819.3700
1787.0000;18823.0100
1788.0000;18770.9600
1789.0000;18724.4200
1790.0000;18740.5600
1791.0000;18787.1200
1792.0000;18794.0100
1793.0000;18756.6200
1794.0000;18736.0200
1795.0000;18762.7500
1796.0000;18811.2400
1797.0000;18868.2600
1798.0000;18910.9300
1799.0000;18917.9400
1800.0000;18879.6800
1801.0000;18838.5300
1802.0000;18834.6500
1803.0000;18828.9600
1804.0000;18773.8500
1805.0000;18703.4800
1806.0000;18660.6000
1807.0000;18668.0500
1808.0000;18701.6400
1809.0000;18743.4900
1810.0000;18783.6700
1811.0000;18801.9500
1812.0000;18794.0600
1813.0000;18778.7400
1814.0000;18760.7700
1815.0000;18756.0200
1816.0000;18784.0900
1817.0000;18815.9600
1818.0000;18818.7100
1819.0000;18793.0400
1820.0000;18764.8600
1821.0000;18742.3200
1822.0000;18724.0100
1823.0000;18707.1600
1824.0000;18701.1300
1825.0000;18698.3300
1826.0000;18706.2200
1827.0000;18728.6000
1828.0000;18763.3700
1829.0000;18792.7300
1830.0000;18798.0400
1831.0000;18792.1800
1832.0000;18808.4700
1833.0000;18835.9800
1834.0000;18846.0600
1835.0000;18827.7100
1836.0000;18820.3000
1837.0000;18865.1400
1838.0000;18916.0300
1839.0000;18923.5200
1840.0000;18890.0000
1841.0000;18869.7700
1842.0000;18882.3800
1843.0000;18897.4500
1844.0000;18892.5500
1845.0000;18882.0300
1846.0000;18879.6700
1847.0000;18885.1300
1848.0000;18892.4900
1849.0000;18899.4800
1850.0000;18909.0000
1851.0000;18920.9400
1852.0000;18936.5500
1853.0000;18963.9200
1854.0000;18993.2900
1855.0000;19009.5700
1856.0000;19005.0300
1857.0000;19007.9400
1858.0000;19050.4800
1859.0000;19093.3800
1860.0000;19095.2600
1861.0000;19066.6800
1862.0000;19066.1600
1863.0000;19109.4700
1864.0000;19157.4900
1865.0000;19185.5000
1866.0000;19196.2800
1867.0000;19201.8500
1868.0000;19199.9500
1869.0000;19210.5900
1870.0000;19237.2400
1871.0000;19264.8300
1872.0000;19284.7900
1873.0000;19296.6900
1874.0000;19308.9800
1875.0000;19317.9800
1876.0000;19333.5600
1877.0000;19354.7200
1878.0000;19374.9800
1879.0000;19392.5900
1880.0000;19400.6200
1881.0000;19397.7500
1882.0000;19389.3300
1883.0000;19400.2300
1884.0000;19431.5400
1885.0000;19460.0200
1886.0000;19469.3600
1887.0000;19479.3300
1888.0000;19520.7900
1889.0000;19569.0800
1890.0000;19594.2700
1891.0000;19590.5100
1892.0000;19592.1600
1893.0000;19617.1200
1894.0000;19649.4100
1895.0000;19690.4800
1896.0000;19722.3700
1897.0000;19734.1500
1898.0000;19722.2400
1899.0000;19719.3800
1900.0000;19739.4000
1901.0000;19762.6800
1902.0000;19774.6300
1903.0000;19781.1700
1904.0000;19801.2600
1905.0000;19821.1500
1906.0000;19815.1000
1907.0000;19774.3700
1908.0000;19751.9900
1909.0000;19789.7000
1910.0000;19848.4500
1911.0000;19874.3100
1912.0000;19871.9100
1913.0000;19870.2500
1914.0000;19873.6600
1915.0000;19885.0900
1916.0000;19910.9200
1917.0000;19939.3600
1918.0000;19963.4100
1919.0000;19979.8200
1920.0000;20003.5400
1921.0000;20028.3700
1922.0000;20050.3900
1923.0000;20067.8900
1924.0000;20073.3900
1925.0000;20066.4100
1926.0000;20057.1300
1927.0000;20076.2500
1928.0000;20115.1500
1929.0000;20136.0800
1930.0000;20121.6900
1931.0000;20120.3700
1932.0000;20175.2900
1933.0000;20245.5200
1934.0000;20287.4100
1935.0000;20297.8500
1936.0000;20305.6400
1937.0000;20314.8900
1938.0000;20343.2500
1939.0000;20413.5100
1940.0000;20476.1400
1941.0000;20491.1700
1942.0000;20469.0100
1943.0000;20465.2000
1944.0000;20484.4000
1945.0000;20519.3800
1946.0000;20569.5000
1947.0000;20617.2000
1948.0000;20654.3500
1949.0000;20671.7900
1950.0000;20688.2000
1951.0000;20691.9000
1952.0000;20682.0900
1953.0000;20659.7600
1954.0000;20650.9900
1955.0000;20675.5400
1956.0000;20718.0000
1957.0000;20758.3600
1958.0000;20790.8500
1959.0000;20812.9500
1960.0000;20819.9900
1961.0000;20838.2600
1962.0000;20882.2200
1963.0000;20927.0000
1964.0000;20960.8100
1965.0000;20980.7500
1966.0000;21008.6600
1967.0000;21032.4000
1968.0000;21044.0400
1969.0000;21039.9800
1970.0000;21047.2300
1971.0000;21090.1200
1972.0000;21144.2900
1973.0000;21189.2500
1974.0000;21221.9500
1975.0000;21265.0500
1976.0000;21307.5100
1977.0000;21329.9900
1978.0000;21322.3300
1979.0000;21308.2000
1980.0000;21329.4900
1981.0000;21352.9900
1982.0000;21339.7000
1983.0000;21303.7600
1984.0000;21307.3600
1985.0000;21364.8400
1986.0000;21399.6200
1987.0000;21352.6600
1988.0000;21306.8900
1989.0000;21349.9900
1990.0000;21447.3900
1991.0000;21526.9100
1992.0000;21567.9500
1993.0000;21595.0600
1994.0000;21611.2900
1995.0000;21618.6300
1996.0000;21638.2700
1997.0000;21655.9600
1998.0000;21674.3800
1999.0000;21688.7500
2000.0000;21704.6100
2001.0000;21720.1600
2002.0000;21742.8800
2003.0000;21780.2800
2004.0000;21797.4700
2005.0000;21755.1400
2006.0000;21705.5700
2007.0000;21742.7500
2008.0000;21848.4000
2009.0000;21921.8800
2010.0000;21922.1400
2011.0000;21891.2700
2012.0000;21855.8400
2013.0000;21829.4700
2014.0000;21841.0200
2015.0000;21884.2400
2016.0000;21932.7700
2017.0000;21974.2200
2018.0000;21994.7600
2019.0000;21982.9200
2020.0000;21982.4000
2021.0000;22037.9100
2022.0000;22100.8400
2023.0000;22128.6300
2024.0000;22121.9600
2025.0000;22120.6300
2026.0000;22125.0400
2027.0000;22125.3100
2028.0000;22119.4900
2029.0000;22116.1600
2030.0000;22124.4300
2031.0000;22136.4300
2032.0000;22141.1600
2033.0000;22141.3800
2034.0000;22148.2600
2035.0000;22162.6800
2036.0000;22182.3900
2037.0000;22206.6000
2038.0000;22222.9600
2039.0000;22227.7900
2040.0000;22220.0400
2041.0000;22213.5500
2042.0000;22207.7900
2043.0000;22205.1200
2044.0000;22207.2100
2045.0000;22210.0100
2046.0000;22209.9500
2047.0000;22215.4000
2048.0000;22235.9200
2049.0000;22258.2200
2050.0000;22260.4800
2051.0000;22251.2600
2052.0000;22273.3600
2053.0000;22328.7100
2054.0000;22360.7400
2055.0000;22332.4800
2056.0000;22294.2000
2057.0000;22306.3700
2058.0000;22338.2200
2059.0000;22349.5500
2060.0000;22346.5400
2061.0000;22363.6500
2062.0000;22402.8200
2063.0000;22433.0400
2064.0000;22433.2900
2065.0000;22428.4000
2066.0000;22450.8700
2067.0000;22481.9900
2068.0000;22507.0600
2069.0000;22523.0100
2070.0000;22542.0400
2071.0000;22562.1300
2072.0000;22573.9800
2073.0000;22574.7600
2074.0000;22569.8100
2075.0000;22571.5900
2076.0000;22576.0400
2077.0000;22583.9700
2078.0000;22593.0200
2079.0000;22593.2100
2080.0000;22587.4300
2081.0000;22614.5200
2082.0000;22693.2600
2083.0000;22759.2400
2084.0000;22749.2300
2085.0000;22709.6300
2086.0000;22727.4100
2087.0000;22777.3000
2088.0000;22799.1200
2089.0000;22786.2900
2090.0000;22791.5400
2091.0000;22836.1800
2092.0000;22866.8800
2093.0000;22834.2200
2094.0000;22797.5400
2095.0000;22837.2800
2096.0000;22919.4700
2097.0000;22968.2500
2098.0000;22969.8200
2099.0000;22966.1800
2100.0000;22970.0100
2101.0000;22991.9400
2102.0000;23053.6200
2103.0000;23102.5100
2104.0000;23092.4100
2105.0000;23044.7600
2106.0000;23031.6600
2107.0000;23050.6500
2108.0000;23059.2400
2109.0000;23048.9900
2110.0000;23052.4600
2111.0000;23089.0600
2112.0000;23121.8000
2113.0000;23114.5400
2114.0000;23091.9700
2115.0000;23097.0200
2116.0000;23124.4000
2117.0000;23153.3900
2118.0000;23174.8100
2119.0000;23181.9900
2120.0000;23168.7600
2121.0000;23163.9100
2122.0000;23197.1300
2123.0000;23242.6700
2124.0000;23276.5800
2125.0000;23292.7800
2126.0000;23303.2600
2127.0000;23303.2900
2128.0000;23301.7600
2129.0000;23302.4800
2130.0000;23309.0900
2131.0000;23329.0400
2132.0000;23341.0100
2133.0000;23321.3300
2134.0000;23291.3100
2135.0000;23294.4000
2136.0000;23321.1800
2137.0000;23329.8600
2138.0000;23314.0100
2139.0000;23305.7800
2140.0000;23320.2800
2141.0000;23330.4600
2142.0000;23313.3400
2143.0000;23292.1600
2144.0000;23291.0300
2145.0000;23308.3500
2146.0000;23331.8700
2147.0000;23358.3300
2148.0000;23381.4900
2149.0000;23396.7000
2150.0000;23419.7100
2151.0000;23461.1000
2152.0000;23500.4000
2153.0000;23535.7700
2154.0000;23549.2900
2155.0000;23541.7600
2156.0000;23518.8000
2157.0000;23516.9400
2158.0000;23542.0500
2159.0000;23579.0400
2160.0000;23616.8900
2161.0000;23634.1800
2162.0000;23613.1000
2163.0000;23581.4100
2164.0000;23586.5700
2165.0000;23606.9100
2166.0000;23609.6700
2167.0000;23598.7300
2168.0000;23597.0900
2169.0000;23605.9400
2170.0000;23602.9300
2171.0000;23578.9700
2172.0000;23552.7400
2173.0000;23537.0400
2174.0000;23532.6700
2175.0000;23524.5400
2176.0000;23531.3700
2177.0000;23571.3300
2178.0000;23629.1600
2179.0000;23657.0100
2180.0000;23637.9700
2181.0000;23621.3400
2182.0000;23634.0800
2183.0000;23642.9500
2184.0000;23619.6200
2185.0000;23604.9500
2186.0000;23647.8700
2187.0000;23712.3700
2188.0000;23733.1500
2189.0000;23711.2500
2190.0000;23716.0000
2191.0000;23758.1000
2192.0000;23782.7600
2193.0000;23764.4900
2194.0000;23740.8600
2195.0000;23745.3300
2196.0000;23760.4300
2197.0000;23771.6400
2198.0000;23777.4000
2199.0000;23775.8100
2200.0000;23767.7000
2201.0000;23765.5700
2202.0000;23771.8200
2203.0000;23771.6800
2204.0000;23758.2500
2205.0000;23748.2800
2206.0000;23748.8300
2207.0000;23769.2500
2208.0000;23814.7200
2209.0000;23871.5000
2210.0000;23919.4000
2211.0000;23944.5100
2212.0000;23954.9300
2213.0000;23945.9900
2214.0000;23927.8300
2215.0000;23909.1400
2216.0000;23906.3800
2217.0000;23938.1300
2218.0000;23966.2100
2219.0000;23942.2000
2220.0000;23901.9700
2221.0000;23911.2900
2222.0000;23948.3400
2223.0000;23941.8700
2224.0000;23893.5700
2225.0000;23891.0500
2226.0000;23959.1300
2227.0000;24004.0300
2228.0000;23958.3200
2229.0000;23908.8800
2230.0000;23934.6700
2231.0000;23999.9200
2232.0000;24061.5900
2233.0000;24107.5600
2234.0000;24133.1100
2235.0000;24131.4700
2236.0000;24137.1700
2237.0000;24158.3900
2238.0000;24201.1600
2239.0000;24268.6600
2240.0000;24321.4800
2241.0000;24337.0800
2242.0000;24317.4300
2243.0000;24291.1400
2244.0000;24255.9600
2245.0000;24230.3600
2246.0000;24215.6200
2247.0000;24185.2900
2248.0000;24149.3700
2249.0000;24141.5800
2250.0000;24174.0000
2251.0000;24204.8500
2252.0000;24205.1600
2253.0000;24190.2000
2254.0000;24166.9600
2255.0000;24155.9500
2256.0000;24185.7000
2257.0000;24239.3000
2258.0000;24279.9100
2259.0000;24296.4200
2260.0000;24295.0500
2261.0000;24279.0500
2262.0000;24294.6400
2263.0000;24360.1400
2264.0000;24419.1700
2265.0000;24434.4100
2266.0000;24426.3600
2267.0000;24430.6700
2268.0000;24430.3400
2269.0000;24426.3200
2270.0000;24421.4100
2271.0000;24424.6500
2272.0000;24434.3900
2273.0000;24437.9600
2274.0000;24432.7900
2275.0000;24426.0900
2276.0000;24421.2200
2277.0000;24431.5600
2278.0000;24468.8700
2279.0000;24501.9600
2280.0000;24494.8700
2281.0000;24474.7400
2282.0000;24487.8300
2283.0000;24521.1700
2284.0000;24554.9900
2285.0000;24575.7300
2286.0000;24572.9700
2287.0000;24545.5400
2288.0000;24535.7000
2289.0000;24563.8600
2290.0000;24599.3000
2291.0000;24619.7100
2292.0000;24641.5400
2293.0000;24685.2700
2294.0000;24722.0100
2295.0000;24742.4500
2296.0000;24732.8800
2297.0000;24699.1700
2298.0000;24654.6100
2299.0000;24647.0200
2300.0000;24685.6100
2301.0000;24731.3400
2302.0000;24762.9700
2303.0000;24789.5900
2304.0000;24812.3900
2305.0000;24825.4500
2306.0000;24839.9400
2307.0000;24841.3400
2308.0000;24828.0000
2309.0000;24810.6400
2310.0000;24816.8200
2311.0000;24840.8200
2312.0000;24855.8900
2313.0000;24859.9900
2314.0000;24869.9400
2315.0000;24887.1700
2316.0000;24902.6300
2317.0000;24910.4600
2318.0000;24925.5400
2319.0000;24961.5800
2320.0000;24989.6400
2321.0000;24989.3100
2322.0000;24968.0500
2323.0000;24946.4600
2324.0000;24934.7500
2325.0000;24948.2100
2326.0000;24985.1100
2327.0000;25030.2800
2328.0000;25064.9100
2329.0000;25060.3300
2330.0000;25005.6300
2331.0000;24964.2500
2332.0000;24973.2100
2333.0000;25005.5100
2334.0000;25037.2100
2335.0000;25073.2000
2336.0000;25115.2500
2337.0000;25147.4200
2338.0000;25171.9000
2339.0000;25176.3100
2340.0000;25171.6500
2341.0000;25158.8100
2342.0000;25154.6300
2343.0000;25164.9300
2344.0000;25191.9600
2345.0000;25232.1800
2346.0000;25258.3900
2347.0000;25254.7100
2348.0000;25241.4100
2349.0000;25238.0700
2350.0000;25247.2000
2351.0000;25277.4800
2352.0000;25316.3000
2353.0000;25349.1800
2354.0000;25367.6900
2355.0000;25384.2800
2356.0000;25388.4000
2357.0000;25378.4100
2358.0000;25359.3600
2359.0000;25363.2500
2360.0000;25398.5400
2361.0000;25426.5800
2362.0000;25425.9600
2363.0000;25429.0100
2364.0000;25462.2100
2365.0000;25478.9800
2366.0000;25445.8800
2367.0000;25392.1200
2368.0000;25354.6200
2369.0000;25336.8300
2370.0000;25320.4700
2371.0000;25320.2500
2372.0000;25339.2600
2373.0000;25371.7000
2374.0000;25384.1000
2375.0000;25371.7800
2376.0000;25383.1400
2377.0000;25433.0200
2378.0000;25489.0700
2379.0000;25529.9200
2380.0000;25573.9500
2381.0000;25639.0500
2382.0000;25696.6900
2383.0000;25748.4600
2384.0000;25773.5300
2385.0000;25792.5900
2386.0000;25791.5100
2387.0000;25792.7900
2388.0000;25787.3400
2389.0000;25768.5000
2390.0000;25739.4900
2391.0000;25716.6700
2392.0000;25705.8900
2393.0000;25689.8000
2394.0000;25665.3800
2395.0000;25644.2100
2396.0000;25631.1000
2397.0000;25630.4500
2398.0000;25636.9900
2399.0000;25661.5700
2400.0000;25702.9400
2401.0000;25755.1700
2402.0000;25815.6600
2403.0000;25867.6100
2404.0000;25911.6000
2405.0000;25938.8600
2406.0000;25989.1400
2407.0000;26035.7500
2408.0000;26025.7100
2409.0000;25959.3900
2410.0000;25927.3100
2411.0000;25960.8900
2412.0000;25988.6400
2413.0000;25980.0700
2414.0000;25957.6700
2415.0000;25928.7900
2416.0000;25924.4800
2417.0000;25974.3700
2418.0000;26030.6000
2419.0000;26033.0800
2420.0000;26005.7100
2421.0000;25995.4700
2422.0000;25993.7500
2423.0000;25991.1100
2424.0000;25989.8300
2425.0000;25987.8300
2426.0000;25986.9800
2427.0000;25996.6800
2428.0000;26010.2200
2429.0000;25982.1400
2430.0000;25907.3400
2431.0000;25869.5100
2432.0000;25913.4800
2433.0000;25955.9300
2434.0000;25936.4000
2435.0000;25910.9800
2436.0000;25925.5700
2437.0000;25937.5000
2438.0000;25901.9100
2439.0000;25861.5200
2440.0000;25863.7200
2441.0000;25900.1900
2442.0000;25939.1300
2443.0000;25974.5400
2444.0000;26001.4600
2445.0000;26007.7200
2446.0000;25988.8100
2447.0000;25957.1800
2448.0000;25973.1500
2449.0000;26047.1800
2450.0000;26121.5800
2451.0000;26161.2200
2452.0000;26166.5900
2453.0000;26136.6100
2454.0000;26104.7800
2455.0000;26106.3700
2456.0000;26116.8800
2457.0000;26116.3400
2458.0000;26110.8000
2459.0000;26094.4400
2460.0000;26088.5800
2461.0000;26121.4700
2462.0000;26165.6300
2463.0000;26162.7100
2464.0000;26137.2500
2465.0000;26164.5500
2466.0000;26229.0500
2467.0000;26264.0000
2468.0000;26259.6500
2469.0000;26266.7000
2470.0000;26287.6400
2471.0000;26285.2500
2472.0000;26252.4900
2473.0000;26241.7200
2474.0000;26275.7500
2475.0000;26302.6000
2476.0000;26287.9500
2477.0000;26269.5500
2478.0000;26273.7300
2479.0000;26292.5400
2480.0000;26318.0200
2481.0000;26351.0600
2482.0000;26397.7800
2483.0000;26428.4800
2484.0000;26419.8500
2485.0000;26392.5300
2486.0000;26409.5200
2487.0000;26454.1300
2488.0000;26488.3700
2489.0000;26502.4900
2490.0000;26501.5400
2491.0000;26488.3700
2492.0000;26497.7500
2493.0000;26529.9100
2494.0000;26545.7800
2495.0000;26533.9800
2496.0000;26524.7900
2497.0000;26529.8600
2498.0000;26536.9500
2499.0000;26540.7000
2500.0000;26568.2200
2501.0000;26635.9500
2502.0000;26685.3300
2503.0000;26669.3600
2504.0000;26642.3800
2505.0000;26676.3800
2506.0000;26716.9000
2507.0000;26706.4800
2508.0000;26688.3100
2509.0000;26740.9300
2510.0000;26802.0800
2511.0000;26783.9700
2512.0000;26712.2400
2513.0000;26679.0000
2514.0000;26673.5900
2515.0000;26628.5200
2516.0000;26560.9000
2517.0000;26524.7500
2518.0000;26534.0400
2519.0000;26551.5800
2520.0000;26568.4600
2521.0000;26577.9200
2522.0000;26574.3700
2523.0000;26578.6200
2524.0000;26597.8600
2525.0000;26609.9600
2526.0000;26602.8400
2527.0000;26604.5600
2528.0000;26636.5300
2529.0000;26649.0400
2530.0000;26607.3400
2531.0000;26561.8300
2532.0000;26564.0200
2533.0000;26584.7800
2534.0000;26588.6000
2535.0000;26585.7900
2536.0000;26579.7300
2537.0000;26573.5000
2538.0000;26578.7500
2539.0000;26582.8200
2540.0000;26552.8900
2541.0000;26522.2900
2542.0000;26559.4100
2543.0000;26635.1600
2544.0000;26661.7400
2545.0000;26628.6000
2546.0000;26580.2500
2547.0000;26532.5600
2548.0000;26520.6000
2549.0000;26549.7500
2550.0000;26555.4800
2551.0000;26524.7200
2552.0000;26499.8700
2553.0000;26497.5900
2554.0000;26528.0400
2555.0000;26592.6400
2556.0000;26635.1700
2557.0000;26623.1600
2558.0000;26616.4100
2559.0000;26653.9800
2560.0000;26682.0600
2561.0000;26668.5200
2562.0000;26642.3600
2563.0000;26630.7900
2564.0000;26631.5000
2565.0000;26644.8400
2566.0000;26662.7900
2567.0000;26665.0200
2568.0000;26675.4700
2569.0000;26729.2900
2570.0000;26786.1400
2571.0000;26806.1100
2572.0000;26785.8800
2573.0000;26743.8900
2574.0000;26709.1300
2575.0000;26744.9700
2576.0000;26819.2200
2577.0000;26844.6500
2578.0000;26827.7000
2579.0000;26844.0600
2580.0000;26873.9300
2581.0000;26849.2200
2582.0000;26788.7300
2583.0000;26803.0200
2584.0000;26885.5100
2585.0000;26914.2200
2586.0000;26867.3900
2587.0000;26843.4600
2588.0000;26864.4300
2589.0000;26887.7900
2590.0000;26900.0300
2591.0000;26897.9300
2592.0000;26880.0800
2593.0000;26886.4700
2594.0000;26933.7700
2595.0000;26991.4500
2596.0000;27038.5800
2597.0000;27043.4800
2598.0000;26988.5800
2599.0000;26955.3800
2600.0000;27005.0100
2601.0000;27058.6200
2602.0000;27056.8100
2603.0000;27032.5200
2604.0000;27009.5800
2605.0000;27006.1600
2606.0000;27052.6800
2607.0000;27086.5600
2608.0000;27034.6800
2609.0000;26975.6000
2610.0000;27001.9600
2611.0000;27060.6600
2612.0000;27084.0200
2613.0000;27078.8000
2614.0000;27055.4300
2615.0000;27030.4100
2616.0000;27040.2100
2617.0000;27071.1000
2618.0000;27094.9000
2619.0000;27104.5200
2620.0000;27093.5700
2621.0000;27073.5700
2622.0000;27090.8800
2623.0000;27114.0400
2624.0000;27067.2500
2625.0000;26987.2500
2626.0000;26967.6500
2627.0000;27010.9700
2628.0000;27056.1600
2629.0000;27090.7600
2630.0000;27111.8400
2631.0000;27111.1600
2632.0000;27104.5500
2633.0000;27096.2000
2634.0000;27100.3700
2635.0000;27121.2900
2636.0000;27159.1200
2637.0000;27203.0600
2638.0000;27237.7600
2639.0000;27251.1000
2640.0000;27253.2900
2641.0000;27248.9100
2642.0000;27270.3400
2643.0000;27321.8000
2644.0000;27359.1800
2645.0000;27367.1100
2646.0000;27383.7000
2647.0000;27413.8000
2648.0000;27421.0200
2649.0000;27392.9200
2650.0000;27351.1100
2651.0000;27311.0600
2652.0000;27300.2100
2653.0000;27330.5200
2654.0000;27324.7600
2655.0000;27247.6100
2656.0000;27200.2400
2657.0000;27230.6100
2658.0000;27258.2100
2659.0000;27236.1600
2660.0000;27197.1400
2661.0000;27158.6900
2662.0000;27138.8100
2663.0000;27151.4500
2664.0000;27185.8000
2665.0000;27226.3700
2666.0000;27250.6000
2667.0000;27240.3300
2668.0000;27225.6800
2669.0000;27233.6300
2670.0000;27252.5500
2671.0000;27280.6800
2672.0000;27286.8800
2673.0000;27245.4800
2674.0000;27218.0900
2675.0000;27260.5300
2676.0000;27318.9900
2677.0000;27350.6500
2678.0000;27358.7400
2679.0000;27349.7900
2680.0000;27335.1000
2681.0000;27336.6600
2682.0000;27355.6700
2683.0000;27401.0600
2684.0000;27428.5100
2685.0000;27398.4300
2686.0000;27351.6300
2687.0000;27341.6600
2688.0000;27346.9400
2689.0000;27347.3800
2690.0000;27338.6600
2691.0000;27301.7000
2692.0000;27275.6100
2693.0000;27302.1000
2694.0000;27330.8400
2695.0000;27301.7400
2696.0000;27252.5000
2697.0000;27217.4400
2698.0000;27216.0100
2699.0000;27262.0400
2700.0000;27317.6300
2701.0000;27329.9800
2702.0000;27310.8300
2703.0000;27283.5000
2704.0000;27263.7500
2705.0000;27284.0000
2706.0000;27312.1000
2707.0000;27308.5900
2708.0000;27277.8600
2709.0000;27219.5500
2710.0000;27181.9300
2711.0000;27213.3000
2712.0000;27278.6400
2713.0000;27314.7700
2714.0000;27332.3300
2715.0000;27348.7600
2716.0000;27360.0100
2717.0000;27381.9400
2718.0000;27413.1100
2719.0000;27475.0900
2720.0000;27512.2800
2721.0000;27480.7900
2722.0000;27420.5100
2723.0000;27409.3300
2724.0000;27405.0200
2725.0000;27348.2000
2726.0000;27302.6400
2727.0000;27311.3400
2728.0000;27355.4000
2729.0000;27388.9100
2730.0000;27425.3800
2731.0000;27478.6500
2732.0000;27515.7700
2733.0000;27517.9700
2734.0000;27508.9400
2735.0000;27537.6700
2736.0000;27566.2000
2737.0000;27564.3800
2738.0000;27558.1800
2739.0000;27584.7800
2740.0000;27603.3700
2741.0000;27575.6900
2742.0000;27551.1800
2743.0000;27580.8100
2744.0000;27618.8600
2745.0000;27623.7300
2746.0000;27599.5200
2747.0000;27546.8000
2748.0000;27513.7300
2749.0000;27542.5200
2750.0000;27590.7100
2751.0000;27611.0200
2752.0000;27608.5300
2753.0000;27581.6000
2754.0000;27568.2000
2755.0000;27603.9800
2756.0000;27645.4900
2757.0000;27655.6800
2758.0000;27651.6300
2759.0000;27647.4700
2760.0000;27632.0000
2761.0000;27603.1100
2762.0000;27613.7100
2763.0000;27696.9900
2764.0000;27732.6200
2765.0000;27644.3000
2766.0000;27566.1700
2767.0000;27584.8000
2768.0000;27601.2200
2769.0000;27566.7900
2770.0000;27525.3400
2771.0000;27498.7700
2772.0000;27516.7300
2773.0000;27588.8500
2774.0000;27662.0100
2775.0000;27696.5900
2776.0000;27706.2900
2777.0000;27692.4600
2778.0000;27655.0600
2779.0000;27604.7900
2780.0000;27580.1800
2781.0000;27595.1300
2782.0000;27583.3500
2783.0000;27532.8300
2784.0000;27510.3800
2785.0000;27533.0600
2786.0000;27556.4700
2787.0000;27565.3900
2788.0000;27556.1100
2789.0000;27531.1300
2790.0000;27520.1000
2791.0000;27533.3600
2792.0000;27571.2600
2793.0000;27617.0800
2794.0000;27618.1500
2795.0000;27579.8400
2796.0000;27573.9000
2797.0000;27608.9100
2798.0000;27666.0300
2799.0000;27719.7100
2800.0000;27732.7200
2801.0000;27697.4400
2802.0000;27643.7400
2803.0000;27596.2800
2804.0000;27591.2900
2805.0000;27632.8700
2806.0000;27688.8700
2807.0000;27737.2000
2808.0000;27745.8300
2809.0000;27726.8700
2810.0000;27734.5500
2811.0000;27755.2100
2812.0000;27782.4000
2813.0000;27803.5400
2814.0000;27805.5800
2815.0000;27805.0300
2816.0000;27840.4700
2817.0000;27870.8500
2818.0000;27855.6600
2819.0000;27839.2400
2820.0000;27874.1500
2821.0000;27917.2200
2822.0000;27929.7600
2823.0000;27935.2100
2824.0000;27950.4800
2825.0000;27984.0900
2826.0000;28046.6400
2827.0000;28075.3900
2828.0000;28033.6300
2829.0000;28014.0600
2830.0000;28070.3600
2831.0000;28122.8500
2832.0000;28129.7900
2833.0000;28118.1200
2834.0000;28098.0600
2835.0000;28087.8600
2836.0000;28098.7700
2837.0000;28128.1000
2838.0000;28161.6500
2839.0000;28151.9700
2840.0000;28092.1300
2841.0000;28031.9300
2842.0000;27997.1300
2843.0000;27985.2800
2844.0000;27998.7500
2845.0000;27991.8100
2846.0000;27980.0700
2847.0000;28009.4000
2848.0000;28072.6300
2849.0000;28134.5400
2850.0000;28178.0800
2851.0000;28213.7400
2852.0000;28215.0000
2853.0000;28194.3700
2854.0000;28143.6700
2855.0000;28064.8700
2856.0000;28017.8000
2857.0000;28065.0400
2858.0000;28139.8600
2859.0000;28137.5400
2860.0000;28111.1200
2861.0000;28113.0700
2862.0000;28122.6100
2863.0000;28133.7500
2864.0000;28130.0100
2865.0000;28100.6100
2866.0000;28064.3400
2867.0000;28039.2100
2868.0000;28010.8400
2869.0000;27978.0200
2870.0000;27948.7100
2871.0000;27929.5200
2872.0000;27909.3300
2873.0000;27889.8900
2874.0000;27884.3900
2875.0000;27901.5100
2876.0000;27947.5200
2877.0000;28012.1900
2878.0000;28063.3500
2879.0000;28082.5400
2880.0000;28089.8100
2881.0000;28083.7300
2882.0000;28088.1500
2883.0000;28105.4300
2884.0000;28145.2900
2885.0000;28186.3600
2886.0000;28203.6200
2887.0000;28199.1000
2888.0000;28203.5600
2889.0000;28201.9400
2890.0000;28189.3900
2891.0000;28179.5200
2892.0000;28187.4300
2893.0000;28197.2100
2894.0000;28194.2900
2895.0000;28189.6400
2896.0000;28189.5200
2897.0000;28201.8000
2898.0000;28229.2100
2899.0000;28269.3300
2900.0000;28314.0000
2901.0000;28332.1600
2902.0000;28310.3400
2903.0000;28274.8800
2904.0000;28243.5800
2905.0000;28246.2900
2906.0000;28276.7300
2907.0000;28266.3900
2908.0000;28221.4700
2909.0000;28193.7000
2910.0000;28198.8800
2911.0000;28235.6900
2912.0000;28293.0600
2913.0000;28331.5800
2914.0000;28368.1800
2915.0000;28463.3500
2916.0000;28534.7500
2917.0000;28521.9200
2918.0000;28473.5400
2919.0000;28468.2200
2920.0000;28469.5000
2921.0000;28462.1700
2922.0000;28439.3800
2923.0000;28396.9400
2924.0000;28357.5900
2925.0000;28337.5500
2926.0000;28309.6400
2927.0000;28272.6000
2928.0000;28245.4100
2929.0000;28237.0000
2930.0000;28224.5200
2931.0000;28217.7800
2932.0000;28250.2700
2933.0000;28299.1100
2934.0000;28293.9200
2935.0000;28254.5000
2936.0000;28260.0400
2937.0000;28279.6700
2938.0000;28257.3600
2939.0000;28218.0900
2940.0000;28181.6200
2941.0000;28182.4000
2942.0000;28246.3300
2943.0000;28305.2300
2944.0000;28297.6900
2945.0000;28267.3200
2946.0000;28244.2200
2947.0000;28256.4400
2948.0000;28316.0300
2949.0000;28340.9200
2950.0000;28311.2700
2951.0000;28320.7100
2952.0000;28375.3200
2953.0000;28423.8400
2954.0000;28436.4700
2955.0000;28396.4400
2956.0000;28320.7800
2957.0000;28261.5000
2958.0000;28243.9700
2959.0000;28276.3700
2960.0000;28319.9900
2961.0000;28299.2100
2962.0000;28239.4100
2963.0000;28175.1500
2964.0000;28115.9000
2965.0000;28074.8900
2966.0000;28086.7100
2967.0000;28157.2200
2968.0000;28213.5600
2969.0000;28215.1000
2970.0000;28238.3000
2971.0000;28286.7500
2972.0000;28292.2300
2973.0000;28258.1500
2974.0000;28273.4400
2975.0000;28323.1500
2976.0000;28334.4100
2977.0000;28321.8100
2978.0000;28340.2100
2979.0000;28362.2200
2980.0000;28357.8700
2981.0000;28344.0400
2982.0000;28341.8000
2983.0000;28352.9100
2984.0000;28378.6900
2985.0000;28412.7600
2986.0000;28446.0300
2987.0000;28492.3500
2988.0000;28545.1100
2989.0000;28545.0800
2990.0000;28487.6300
2991.0000;28470.7700
2992.0000;28496.7500
2993.0000;28484.5300
2994.0000;28464.0700
2995.0000;28520.4400
2996.0000;28606.0200
2997.0000;28637.0000
2998.0000;28628.7300
2999.0000;28627.2900
3000.0000;28623.5100
3001.0000;28626.9600
3002.0000;28642.3700
3003.0000;28671.6600
3004.0000;28655.9300
3005.0000;28576.8700
3006.0000;28503.3900
3007.0000;28472.7800
3008.0000;28477.9900
3009.0000;28516.4900
3010.0000;28536.5000
3011.0000;28541.5800
3012.0000;28573.8800
3013.0000;28595.3600
3014.0000;28560.7900
3015.0000;28498.9000
3016.0000;28454.3100
3017.0000;28438.4300
3018.0000;28454.3600
3019.0000;28480.7200
3020.0000;28492.8900
3021.0000;28494.5100
3022.0000;28486.4600
3023.0000;28494.2400
3024.0000;28522.0900
3025.0000;28558.6600
3026.0000;28586.5200
3027.0000;28590.0300
3028.0000;28559.9000
3029.0000;28508.2800
3030.0000;28461.3300
3031.0000;28442.7100
3032.0000;28468.0200
3033.0000;28534.3700
3034.0000;28569.5400
3035.0000;28520.6400
3036.0000;28495.3100
3037.0000;28540.3900
3038.0000;28543.4900
3039.0000;28483.5800
3040.0000;28436.1600
3041.0000;28419.6700
3042.0000;28404.0100
3043.0000;28395.4600
3044.0000;28386.1700
3045.0000;28374.4600
3046.0000;28352.6600
3047.0000;28316.7800
3048.0000;28255.1300
3049.0000;28225.0200
3050.0000;28257.9100
3051.0000;28277.2200
3052.0000;28247.7900
3053.0000;28232.0900
3054.0000;28243.4000
3055.0000;28256.9700
3056.0000;28263.7300
3057.0000;28252.0600
3058.0000;28231.0400
3059.0000;28216.3300
3060.0000;28231.4800
3061.0000;28301.8900
3062.0000;28352.8700
3063.0000;28315.9800
3064.0000;28257.1800
3065.0000;28228.6200
3066.0000;28212.1000
3067.0000;28211.9100
3068.0000;28235.3600
3069.0000;28269.7300
3070.0000;28258.6800
3071.0000;28222.7500
3072.0000;28236.9600
3073.0000;28286.0000
3074.0000;28331.0200
3075.0000;28363.3200
3076.0000;28376.3700
3077.0000;28378.9400
3078.0000;28387.5400
3079.0000;28371.1500
3080.0000;28328.9900
3081.0000;28327.2700
3082.0000;28371.6000
3083.0000;28376.7600
3084.0000;28350.7300
3085.0000;28363.0100
3086.0000;28395.1200
3087.0000;28409.6200
3088.0000;28413.2800
3089.0000;28415.5600
3090.0000;28425.7200
3091.0000;28453.1200
3092.0000;28476.1300
3093.0000;28485.7000
3094.0000;28518.0300
3095.0000;28567.6200
3096.0000;28603.3400
3097.0000;28612.1500
3098.0000;28618.7900
3099.0000;28613.9700
3100.0000;28601.7100
3101.0000;28590.9800
3102.0000;28596.7100
3103.0000;28597.2100
3104.0000;28578.2700
3105.0000;28548.6800
3106.0000;28519.3600
3107.0000;28520.1200
3108.0000;28542.3900
3109.0000;28509.0000
3110.0000;28437.4100
3111.0000;28383.7100
3112.0000;28359.3300
3113.0000;28351.2600
3114.0000;28347.9200
3115.0000;28316.6900
3116.0000;28306.0400
3117.0000;28336.3500
3118.0000;28366.8400
3119.0000;28377.3600
3120.0000;28364.5900
3121.0000;28336.4500
3122.0000;28333.7400
3123.0000;28350.4000
3124.0000;28365.4500
3125.0000;28365.2200
3126.0000;28336.9000
3127.0000;28297.5400
3128.0000;28265.5300
3129.0000;28256.5400
3130.0000;28273.6500
3131.0000;28256.9600
3132.0000;28216.9100
3133.0000;28245.1000
3134.0000;28311.3500
3135.0000;28324.2300
3136.0000;28301.4900
3137.0000;28287.5100
3138.0000;28272.1800
3139.0000;28258.2400
3140.0000;28235.7100
3141.0000;28204.1900
3142.0000;28164.6500
3143.0000;28133.8800
3144.0000;28132.9200
3145.0000;28155.3300
3146.0000;28157.9400
3147.0000;28137.6300
3148.0000;28089.1200
3149.0000;28056.6700
3150.0000;28074.6500
3151.0000;28087.0500
3152.0000;28069.1800
3153.0000;28087.1100
3154.0000;28140.1100
3155.0000;28162.3600
3156.0000;28141.6800
3157.0000;28097.2600
3158.0000;28051.5600
3159.0000;28035.3300
3160.0000;28053.8500
3161.0000;28098.9000
3162.0000;28107.2600
3163.0000;28053.4200
3164.0000;28020.9400
3165.0000;28033.0700
3166.0000;28064.4900
3167.0000;28100.4100
3168.0000;28107.4500
3169.0000;28106.0400
3170.0000;28137.0700
3171.0000;28154.7500
3172.0000;28133.4800
3173.0000;28151.2000
3174.0000;28225.5600
3175.0000;28263.1600
3176.0000;28248.9700
3177.0000;28252.0200
3178.0000;28256.2800
3179.0000;28239.5200
3180.0000;28219.4600
3181.0000;28212.9700
3182.0000;28225.2400
3183.0000;28253.3700
3184.0000;28252.9400
3185.0000;28212.5400
3186.0000;28163.9300
3187.0000;28137.4800
3188.0000;28173.1500
3189.0000;28225.8000
3190.0000;28204.9900
3191.0000;28180.9800
3192.0000;28211.6500
3193.0000;28220.8900
3194.0000;28181.6300
3195.0000;28133.1800
3196.0000;28101.7800
3197.0000;28113.7700
3198.0000;28155.2300
3199.0000;28162.8900
3200.0000;28170.4800
3201.0000;28216.0100
3202.0000;28222.2700
3203.0000;28158.4400
3204.0000;28137.8600
3205.0000;28182.4000
3206.0000;28199.7800
3207.0000;28169.7800
3208.0000;28087.3800
3209.0000;28006.3600
3210.0000;27992.0600
3211.0000;28008.5200
3212.0000;28013.7000
3213.0000;28016.4200
3214.0000;28010.1800
3215.0000;27984.0600
3216.0000;27940.4600
3217.0000;27878.4800
3218.0000;27832.1000
3219.0000;27824.8500
3220.0000;27852.3800
3221.0000;27889.5600
3222.0000;27932.0900
3223.0000;27967.9100
3224.0000;28008.0000
3225.0000;28031.5300
3226.0000;28009.7400
3227.0000;27964.7500
3228.0000;27961.4600
3229.0000;27952.6700
3230.0000;27898.4100
3231.0000;27874.8400
3232.0000;27904.7900
3233.0000;27890.7800
3234.0000;27834.2200
3235.0000;27805.3100
3236.0000;27815.0800
3237.0000;27849.3400
3238.0000;27890.8200
3239.0000;27909.6000
3240.0000;27899.5000
3241.0000;27864.5800
3242.0000;27847.1000
3243.0000;27858.4700
3244.0000;27868.6300
3245.0000;27885.1400
3246.0000;27920.9400
3247.0000;27944.7700
3248.0000;27936.9300
3249.0000;27904.8800
3250.0000;27864.9200
3251.0000;27845.9400
3252.0000;27860.7600
3253.0000;27886.9000
3254.0000;27917.0400
3255.0000;27942.1400
3256.0000;27948.4800
3257.0000;27934.2800
3258.0000;27914.8800
3259.0000;27903.7300
3260.0000;27906.5900
3261.0000;27933.5600
3262.0000;28000.5700
3263.0000;28055.8000
3264.0000;28040.5400
3265.0000;28000.9100
3266.0000;27984.0100
3267.0000;27999.5300
3268.0000;28040.1800
3269.0000;28048.6100
3270.0000;28012.6600
3271.0000;27950.7800
3272.0000;27888.3500
3273.0000;27856.2000
3274.0000;27832.9700
3275.0000;27803.6600
3276.0000;27767.4500
3277.0000;27739.2400
3278.0000;27749.3400
3279.0000;27776.4000
3280.0000;27760.9800
3281.0000;27716.0800
3282.0000;27657.3500
3283.0000;27642.7600
3284.0000;27684.2000
3285.0000;27668.6300
3286.0000;27605.8000
3287.0000;27575.7000
3288.0000;27597.5100
3289.0000;27676.1700
3290.0000;27726.6200
3291.0000;27690.9200
3292.0000;27650.9800
3293.0000;27630.9800
3294.0000;27602.7800
3295.0000;27571.0400
3296.0000;27526.2600
3297.0000;27484.0800
3298.0000;27449.2400
3299.0000;27420.2000
3300.0000;27392.1000
3301.0000;27331.1600
3302.0000;27257.6600
3303.0000;27196.7900
3304.0000;27175.2900
3305.0000;27183.6000
3306.0000;27222.6700
3307.0000;27269.5200
3308.0000;27258.9600
3309.0000;27197.1200
3310.0000;27217.1000
3311.0000;27277.2000
3312.0000;27273.1200
3313.0000;27226.8800
3314.0000;27166.0700
3315.0000;27134.5600
3316.0000;27152.4200
3317.0000;27170.3700
3318.0000;27171.7300
3319.0000;27129.2600
3320.0000;27094.6900
3321.0000;27128.8000
3322.0000;27163.6800
3323.0000;27159.3600
3324.0000;27156.8500
3325.0000;27158.7400
3326.0000;27154.6700
3327.0000;27155.4300
3328.0000;27179.0800
3329.0000;27182.0900
3330.0000;27143.8900
3331.0000;27163.5600
3332.0000;27239.1400
3333.0000;27252.6400
3334.0000;27232.1500
3335.0000;27273.0000
3336.0000;27323.4600
3337.0000;27351.0200
3338.0000;27333.3900
3339.0000;27275.1700
3340.0000;27245.2900
3341.0000;27237.8900
3342.0000;27191.0900
3343.0000;27166.9500
3344.0000;27203.1500
3345.0000;27234.0300
3346.0000;27231.2200
3347.0000;27223.4300
3348.0000;27228.7800
3349.0000;27286.6300
3350.0000;27346.2900
3351.0000;27353.3900
3352.0000;27385.1600
3353.0000;27457.1000
3354.0000;27483.0900
3355.0000;27441.9900
3356.0000;27367.3300
3357.0000;27293.1000
3358.0000;27264.2300
3359.0000;27252.7000
3360.0000;27245.5800
3361.0000;27260.8900
3362.0000;27282.4500
3363.0000;27262.3700
3364.0000;27223.8400
3365.0000;27201.5000
3366.0000;27196.3500
3367.0000;27203.7100
3368.0000;27173.8100
3369.0000;27127.5200
3370.0000;27134.8500
3371.0000;27162.8100
3372.0000;27153.4900
3373.0000;27178.7700
3374.0000;27251.8900
3375.0000;27286.3800
3376.0000;27269.6400
3377.0000;27259.6400
3378.0000;27253.6400
3379.0000;27262.4400
3380.0000;27240.3800
3381.0000;27177.2200
3382.0000;27122.9600
3383.0000;27085.9700
3384.0000;27012.2700
3385.0000;26987.8600
3386.0000;27069.5900
3387.0000;27126.1100
3388.0000;27099.1000
3389.0000;27077.6400
3390.0000;27062.8300
3391.0000;27044.3200
3392.0000;27004.4300
3393.0000;26926.7400
3394.0000;26915.8300
3395.0000;26988.7500
3396.0000;26994.0900
3397.0000;26969.7500
3398.0000;27042.9600
3399.0000;27097.1000
3400.0000;27049.8500
3401.0000;27019.3700
3402.0000;27028.9700
3403.0000;26985.7300
3404.0000;26930.3400
3405.0000;26933.9000
3406.0000;26930.9700
3407.0000;26881.7000
3408.0000;26891.3200
3409.0000;26956.3100
3410.0000;26964.2300
3411.0000;26940.9000
3412.0000;26940.6900
3413.0000;26931.8400
3414.0000;26914.5800
3415.0000;26970.7900
3416.0000;27062.4200
3417.0000;27055.0200
3418.0000;27012.4500
3419.0000;27026.4300
3420.0000;27014.3400
3421.0000;26957.3700
3422.0000;26892.6800
3423.0000;26863.1000
3424.0000;26904.7300
3425.0000;26955.8400
3426.0000;26946.0000
3427.0000;26895.2400
3428.0000;26835.6500
3429.0000;26849.5200
3430.0000;26898.2500
3431.0000;26890.0200
3432.0000;26878.4800
3433.0000;26887.8700
3434.0000;26892.7300
3435.0000;26877.0600
3436.0000;26810.6100
3437.0000;26759.1000
3438.0000;26784.3800
3439.0000;26839.5700
3440.0000;26881.6500
3441.0000;26850.1600
3442.0000;26781.1900
3443.0000;26785.4300
3444.0000;26778.9300
3445.0000;26712.2000
3446.0000;26724.2500
3447.0000;26798.6200
3448.0000;26747.5700
3449.0000;26669.0900
3450.0000;26700.0400
3451.0000;26736.0500
3452.0000;26727.0200
3453.0000;26702.9000
3454.0000;26670.4000
3455.0000;26638.6300
3456.0000;26616.3000
3457.0000;26604.6600
3458.0000;26614.9400
3459.0000;26635.9400
3460.0000;26618.2600
3461.0000;26583.1400
3462.0000;26568.0600
3463.0000;26548.8800
3464.0000;26520.1300
3465.0000;26491.4600
3466.0000;26481.2000
3467.0000;26502.9100
3468.0000;26512.8700
3469.0000;26473.8800
3470.0000;26426.2700
3471.0000;26394.9500
3472.0000;26392.9300
3473.0000;26411.6900
3474.0000;26417.8500
3475.0000;26428.7400
3476.0000;26441.8300
3477.0000;26430.5900
3478.0000;26395.3100
3479.0000;26343.6900
3480.0000;26328.0300
3481.0000;26371.9600
3482.0000;26373.6600
3483.0000;26330.7400
3484.0000;26309.6200
3485.0000;26329.6300
3486.0000;26396.6200
3487.0000;26443.5400
3488.0000;26436.5900
3489.0000;26405.6800
3490.0000;26380.9000
3491.0000;26412.7100
3492.0000;26446.1900
3493.0000;26448.8200
3494.0000;26451.9500
3495.0000;26448.2000
3496.0000;26421.3300
3497.0000;26402.9800
3498.0000;26415.1200
3499.0000;26395.4800
3500.0000;26349.5800
3501.0000;26339.9100
3502.0000;26353.2600
3503.0000;26360.3600
3504.0000;26341.6600
3505.0000;26301.7000
3506.0000;26306.1200
3507.0000;26325.0600
3508.0000;26290.6000
3509.0000;26261.1600
3510.0000;26260.7900
3511.0000;26220.0300
3512.0000;26163.3900
3513.0000;26146.3000
3514.0000;26146.5000
3515.0000;26138.5300
3516.0000;26133.1100
3517.0000;26128.2200
3518.0000;26101.7900
3519.0000;26110.1000
3520.0000;26190.5100
3521.0000;26201.2600
3522.0000;26131.6500
3523.0000;26147.3700
3524.0000;26178.3900
3525.0000;26127.3500
3526.0000;26084.4500
3527.0000;26074.4600
3528.0000;26016.0000
3529.0000;25957.1100
3530.0000;25958.7400
3531.0000;25995.7200
3532.0000;26036.4200
3533.0000;26046.6500
3534.0000;26033.5100
3535.0000;26049.1200
3536.0000;26053.8700
3537.0000;26029.9900
3538.0000;26007.9200
3539.0000;25987.2000
3540.0000;25940.5700
3541.0000;25916.5200
3542.0000;25938.8000
3543.0000;25910.0500
3544.0000;25834.2900
3545.0000;25787.6500
3546.0000;25764.5300
3547.0000;25749.7500
3548.0000;25760.0700
3549.0000;25776.9000
3550.0000;25732.9100
3551.0000;25678.6100
3552.0000;25670.7100
3553.0000;25674.5800
3554.0000;25676.2900
3555.0000;25662.3000
3556.0000;25639.7200
3557.0000;25621.8000
3558.0000;25581.7100
3559.0000;25525.2300
3560.0000;25490.5900
3561.0000;25484.6600
3562.0000;25486.6400
3563.0000;25483.2400
3564.0000;25466.2500
3565.0000;25447.9100
3566.0000;25429.3300
3567.0000;25405.5800
3568.0000;25387.3500
3569.0000;25382.4300
3570.0000;25397.1200
3571.0000;25419.6300
3572.0000;25424.1400
3573.0000;25431.2600
3574.0000;25443.9400
3575.0000;25434.4000
3576.0000;25396.8100
3577.0000;25340.7600
3578.0000;25275.7400
3579.0000;25220.3000
3580.0000;25175.9000
3581.0000;25144.4600
3582.0000;25091.9300
3583.0000;25066.6600
3584.0000;25088.0700
3585.0000;25129.8300
3586.0000;25165.5300
3587.0000;25156.3600
3588.0000;25175.1300
3589.0000;25241.7300
3590.0000;25247.2000
3591.0000;25216.4800
3592.0000;25239.6300
3593.0000;25229.5000
3594.0000;25167.8300
3595.0000;25155.2700
3596.0000;25200.0800
3597.0000;25269.9200
3598.0000;25309.9400
3599.0000;25293.1100
3600.0000;25285.5800
3601.0000;25277.1200
3602.0000;25247.8700
3603.0000;25251.7900
3604.0000;25292.2900
3605.0000;25274.5700
3606.0000;25221.3100
3607.0000;25193.9500
3608.0000;25172.5200
3609.0000;25163.7300
3610.0000;25204.2000
3611.0000;25236.9100
3612.0000;25183.2300
3613.0000;25164.6500
3614.0000;25206.4400
3615.0000;25203.8000
3616.0000;25175.8800
3617.0000;25155.3700
3618.0000;25116.9500
3619.0000;25082.1600
3620.0000;25111.4600
3621.0000;25141.1900
3622.0000;25099.5500
3623.0000;25097.2300
3624.0000;25122.1000
3625.0000;25036.7500
3626.0000;24972.6100
3627.0000;25027.3400
3628.0000;25055.1300
3629.0000;25048.6000
3630.0000;25088.0300
3631.0000;25099.2400
3632.0000;25056.6000
3633.0000;25131.5500
3634.0000;25233.2600
3635.0000;25141.8600
3636.0000;25031.1900
3637.0000;25017.6700
3638.0000;25015.1300
3639.0000;25018.5200
3640.0000;25007.1000
3641.0000;24986.4100
3642.0000;24967.3500
3643.0000;24988.0000
3644.0000;25010.8400
3645.0000;24979.8300
3646.0000;24923.4900
3647.0000;24877.5700
3648.0000;24886.0900
3649.0000;24928.9900
3650.0000;24956.9900
3651.0000;24916.7200
3652.0000;24812.3200
3653.0000;24703.3300
3654.0000;24648.3400
3655.0000;24671.1700
3656.0000;24658.4100
3657.0000;24615.4500
3658.0000;24593.2500
3659.0000;24597.6000
3660.0000;24619.1000
3661.0000;24604.7400
3662.0000;24563.0200
3663.0000;24527.0900
3664.0000;24487.8500
3665.0000;24458.4700
3666.0000;24473.5600
3667.0000;24475.8300
3668.0000;24397.7800
3669.0000;24374.4500
3670.0000;24418.0900
3671.0000;24404.2100
3672.0000;24388.3800
3673.0000;24407.4300
3674.0000;24445.6200
3675.0000;24473.7600
3676.0000;24454.8200
3677.0000;24442.7000
3678.0000;24457.8000
3679.0000;24414.2100
3680.0000;24350.1600
3681.0000;24333.6400
3682.0000;24318.9600
3683.0000;24298.5100
3684.0000;24282.6300
3685.0000;24277.4700
3686.0000;24282.6300
3687.0000;24333.5000
3688.0000;24379.2700
3689.0000;24317.5800
3690.0000;24244.8200
3691.0000;24232.3600
3692.0000;24210.6800
3693.0000;24182.5300
3694.0000;24147.2000
3695.0000;24131.2100
3696.0000;24143.2900
3697.0000;24157.5200
3698.0000;24171.9100
3699.0000;24181.0900
3700.0000;24203.5500
3701.0000;24227.8000
3702.0000;24232.5400
3703.0000;24228.9300
3704.0000;24225.3400
3705.0000;24211.0200
3706.0000;24186.7300
3707.0000;24157.5200
3708.0000;24150.1200
3709.0000;24163.0700
3710.0000;24148.4800
3711.0000;24135.3800
3712.0000;24144.2500
3713.0000;24143.8100
3714.0000;24128.4900
3715.0000;24099.4300
3716.0000;24104.0600
3717.0000;24136.4300
3718.0000;24064.4400
3719.0000;23962.9700
3720.0000;23934.3000
3721.0000;23940.6600
3722.0000;23959.9400
3723.0000;23935.7300
3724.0000;23918.5600
3725.0000;23931.7800
3726.0000;23928.2000
3727.0000;23900.5900
3728.0000;23852.4100
3729.0000;23822.5300
3730.0000;23823.8500
3731.0000;23820.7200
3732.0000;23807.8200
3733.0000;23778.7200
3734.0000;23736.9300
3735.0000;23707.1600
3736.0000;23712.3600
3737.0000;23709.9900
3738.0000;23687.6300
3739.0000;23684.9800
3740.0000;23660.9100
3741.0000;23592.9800
3742.0000;23593.0100
3743.0000;23630.1900
3744.0000;23587.7300
3745.0000;23527.9800
3746.0000;23490.3200
3747.0000;23467.6200
3748.0000;23460.6600
3749.0000;23454.6800
3750.0000;23466.0800
3751.0000;23490.0600
3752.0000;23508.9100
3753.0000;23506.1700
3754.0000;23489.6100
3755.0000;23522.6700
3756.0000;23573.4100
3757.0000;23597.7500
3758.0000;23549.0000
3759.0000;23473.9200
3760.0000;23495.5500
3761.0000;23518.7300
3762.0000;23506.8600
3763.0000;23538.3800
3764.0000;23557.7700
3765.0000;23519.4700
3766.0000;23529.9800
3767.0000;23569.8600
3768.0000;23551.4900
3769.0000;23531.7500
3770.0000;23534.1200
3771.0000;23528.5700
3772.0000;23535.3900
3773.0000;23563.7900
3774.0000;23576.2500
3775.0000;23556.5400
3776.0000;23506.3500
3777.0000;23455.7000
3778.0000;23437.7700
3779.0000;23469.9600
3780.0000;23490.9400
3781.0000;23448.4000
3782.0000;23413.1800
3783.0000;23389.7300
3784.0000;23360.5200
3785.0000;23347.1700
3786.0000;23355.9700
3787.0000;23368.9200
3788.0000;23392.2800
3789.0000;23414.0300
3790.0000;23393.2700
3791.0000;23346.0400
3792.0000;23312.6600
3793.0000;23326.0800
3794.0000;23364.3600
3795.0000;23350.9300
3796.0000;23278.4200
3797.0000;23186.4200
3798.0000;23194.5400
3799.0000;23242.5600
3800.0000;23234.9300
3801.0000;23208.1200
3802.0000;23189.1400
3803.0000;23214.8100
3804.0000;23233.0600
3805.0000;23219.5700
3806.0000;23188.9900
3807.0000;23156.9700
3808.0000;23138.7500
3809.0000;23116.8200
3810.0000;23066.9400
3811.0000;22966.8500
3812.0000;22911.4700
3813.0000;22919.7700
3814.0000;22933.9800
3815.0000;22910.7500
3816.0000;22842.7900
3817.0000;22808.8600
3818.0000;22800.7000
3819.0000;22793.0300
3820.0000;22724.1600
3821.0000;22657.0300
3822.0000;22684.1400
3823.0000;22722.2800
3824.0000;22728.9400
3825.0000;22691.0100
3826.0000;22642.2000
3827.0000;22608.1200
3828.0000;22558.8000
3829.0000;22522.2200
3830.0000;22512.3900
3831.0000;22523.5000
3832.0000;22524.2400
3833.0000;22470.6500
3834.0000;22441.1100
3835.0000;22425.5800
3836.0000;22318.1000
3837.0000;22229.0600
3838.0000;22219.5500
3839.0000;22229.2200
3840.0000;22253.1900
3841.0000;22271.5700
3842.0000;22353.0000
3843.0000;22423.9600
3844.0000;22392.0900
3845.0000;22384.2800
3846.0000;22395.9300
3847.0000;22323.6100
3848.0000;22313.2300
3849.0000;22389.2500
3850.0000;22371.9700
3851.0000;22347.8400
3852.0000;22382.9300
3853.0000;22432.8500
3854.0000;22471.8200
3855.0000;22477.3200
3856.0000;22439.8500
3857.0000;22390.4400
3858.0000;22388.5800
3859.0000;22393.2700
3860.0000;22379.8000
3861.0000;22326.6300
3862.0000;22280.5700
3863.0000;22269.7800
3864.0000;22251.9900
3865.0000;22233.6800
3866.0000;22220.3400
3867.0000;22257.2100
3868.0000;22298.4600
3869.0000;22272.0600
3870.0000;22250.0300
3871.0000;22239.9700
3872.0000;22218.8700
3873.0000;22153.3200
3874.0000;22075.4400
3875.0000;22088.9600
3876.0000;22099.1200
3877.0000;22043.8300
3878.0000;21971.4500
3879.0000;21912.7000
3880.0000;21886.5200
3881.0000;21857.4100
3882.0000;21830.3800
3883.0000;21804.4600
3884.0000;21783.7900
3885.0000;21767.7800
3886.0000;21744.7400
3887.0000;21734.1000
3888.0000;21733.3600
3889.0000;21708.6200
3890.0000;21685.8200
3891.0000;21683.3700
3892.0000;21706.1700
3893.0000;21727.4100
3894.0000;21718.0400
3895.0000;21665.9700
3896.0000;21625.8500
3897.0000;21650.4500
3898.0000;21677.9200
3899.0000;21677.4000
3900.0000;21632.7000
3901.0000;21600.1800
3902.0000;21590.1400
3903.0000;21568.5900
3904.0000;21551.8900
3905.0000;21538.7500
3906.0000;21504.8800
3907.0000;21488.0300
3908.0000;21494.6100
3909.0000;21467.3000
3910.0000;21447.8400
3911.0000;21457.5300
3912.0000;21450.4800
3913.0000;21421.4200
3914.0000;21378.6100
3915.0000;21365.4100
3916.0000;21373.2600
3917.0000;21368.4600
3918.0000;21373.3700
3919.0000;21406.4600
3920.0000;21478.4600
3921.0000;21522.4700
3922.0000;21515.6500
3923.0000;21493.6100
3924.0000;21477.6800
3925.0000;21480.9900
3926.0000;21482.7600
3927.0000;21490.0900
3928.0000;21498.0900
3929.0000;21496.6100
3930.0000;21475.2400
3931.0000;21442.5100
3932.0000;21438.2900
3933.0000;21449.4100
3934.0000;21448.9600
3935.0000;21408.8100
3936.0000;21370.7700
3937.0000;21374.7800
3938.0000;21331.1000
3939.0000;21262.5000
3940.0000;21219.6800
3941.0000;21185.8600
3942.0000;21165.5600
3943.0000;21146.6400
3944.0000;21088.3800
3945.0000;21033.9700
3946.0000;21064.9200
3947.0000;21103.3100
3948.0000;21108.0600
3949.0000;21078.9900
3950.0000;21009.0600
3951.0000;20936.2900
3952.0000;20923.3700
3953.0000;20949.3200
3954.0000;20967.5900
3955.0000;20915.4600
3956.0000;20849.8800
3957.0000;20813.5200
3958.0000;20756.4200
3959.0000;20723.6700
3960.0000;20728.1200
3961.0000;20699.3800
3962.0000;20669.0600
3963.0000;20655.4800
3964.0000;20613.4500
3965.0000;20547.6000
3966.0000;20480.6500
3967.0000;20467.1400
3968.0000;20487.9300
3969.0000;20485.3200
3970.0000;20410.2300
3971.0000;20336.0300
3972.0000;20354.8400
3973.0000;20358.1400
3974.0000;20328.9800
3975.0000;20277.5100
3976.0000;20257.0400
3977.0000;20267.3400
3978.0000;20269.1700
3979.0000;20219.9300
3980.0000;20129.3900
3981.0000;20042.4000
3982.0000;20014.5600
3983.0000;20046.3400
3984.0000;20066.5300
3985.0000;20061.5400
3986.0000;20033.8400
3987.0000;20012.7200
3988.0000;20037.2600
3989.0000;20102.4100
3990.0000;20158.5100
3991.0000;20149.5500
3992.0000;20088.8500
3993.0000;20077.8000
3994.0000;20050.2400
3995.0000;19999.5100
3996.0000;19953.8300
3997.0000;19959.4900
3998.0000;20010.6100
3999.0000;20032.6100
4000.0000;20047.6600
4001.0000;20059.2200
4002.0000;20067.0200
4003.0000;20080.3800
4004.0000;20089.4400
4005.0000;20056.1900
4006.0000;20061.9900
4007.0000;20108.2300
4008.0000;20081.5500
4009.0000;20057.8000
4010.0000;20059.7100
4011.0000;20034.0800
4012.0000;20020.2500
4013.0000;20020.2100
4014.0000;19983.8300
4015.0000;19931.0200
4016.0000;19894.8800
4017.0000;19906.1200
4018.0000;19916.6100
4019.0000;19900.7500
4020.0000;19885.9600
4021.0000;19865.7000
4022.0000;19840.7700
4023.0000;19807.4800
4024.0000;19772.9800
4025.0000;19733.3800
4026.0000;19658.8800
4027.0000;19592.7900
4028.0000;19557.9500
4029.0000;19531.0400
4030.0000;19484.4800
4031.0000;19433.5400
4032.0000;19436.2900
4033.0000;19431.1900
4034.0000;19393.6500
4035.0000;19334.4500
4036.0000;19329.1900
4037.0000;19364.3100
4038.0000;19333.5400
4039.0000;19333.6400
4040.0000;19363.2400
4041.0000;19351.6400
4042.0000;19308.7500
4043.0000;19273.7600
4044.0000;19303.2200
4045.0000;19300.5400
4046.0000;19268.4400
4047.0000;19267.9800
4048.0000;19228.2100
4049.0000;19182.4800
4050.0000;19198.5200
4051.0000;19205.3800
4052.0000;19191.5400
4053.0000;19170.7000
4054.0000;19168.4200
4055.0000;19185.7000
4056.0000;19204.5300
4057.0000;19202.0400
4058.0000;19170.8900
4059.0000;19129.4300
4060.0000;19146.5400
4061.0000;19167.3700
4062.0000;19130.5000
4063.0000;19125.1000
4064.0000;19138.4400
4065.0000;19143.0800
4066.0000;19119.3200
4067.0000;19103.2800
4068.0000;19118.7300
4069.0000;19125.5800
4070.0000;19115.8300
4071.0000;19088.5300
4072.0000;19056.1500
4073.0000;19020.9200
4074.0000;18984.4000
4075.0000;18917.8100
4076.0000;18925.2400
4077.0000;18984.3400
4078.0000;18929.3400
4079.0000;18861.2300
4080.0000;18822.0800
4081.0000;18787.3500
4082.0000;18756.6000
4083.0000;18716.5800
4084.0000;18647.2100
4085.0000;18614.5200
4086.0000;18635.5900
4087.0000;18675.8400
4088.0000;18632.2200
4089.0000;18551.8800
4090.0000;18522.8800
4091.0000;18475.8400
4092.0000;18424.1100
4093.0000;18380.6400
4094.0000;18325.2800
4095.0000;18311.0300
4096.0000;18339.5900
4097.0000;18271.4600
4098.0000;18285.5700
4099.0000;18411.0200
4100.0000;18393.6300
4101.0000;18372.9500
4102.0000;18377.2400
4103.0000;18297.7400
4104.0000;18225.5100
4105.0000;18175.1500
4106.0000;18090.7000
4107.0000;18001.5400
4108.0000;17907.6500
4109.0000;17789.0100
4110.0000;17659.1400
4111.0000;17546.3300
4112.0000;17458.0600
4113.0000;17307.4000
4114.0000;17164.8500
4115.0000;17077.3000
4116.0000;16903.8200
4117.0000;16730.5100
4118.0000;16594.8000
4119.0000;16393.4200
4120.0000;16189.8100
4121.0000;16013.2300
4122.0000;15842.3200
4123.0000;15633.7700
4124.0000;15445.5100
4125.0000;15353.3300
4126.0000;15190.0400
4127.0000;14966.5100
4128.0000;14752.3000
4129.0000;14538.9200
4130.0000;14347.0200
4131.0000;14160.6700
4132.0000;13942.8200
4133.0000;13753.2100
4134.0000;13591.9400
4135.0000;13335.7300
4136.0000;13079.6400
4137.0000;12866.4400
4138.0000;12628.2900
4139.0000;12384.0500
4140.0000;12150.6800
4141.0000;11909.4700
4142.0000;11680.9000
4143.0000;11487.6700
4144.0000;11304.6300
4145.0000;11082.9200
4146.0000;10887.7200
4147.0000;10747.0400
4148.0000;10560.2900
4149.0000;10380.5500
4150.0000;10239.6600
4151.0000;10115.2700
4152.0000;9988.0790
4153.0000;9858.0320
4154.0000;9727.5860
4155.0000;9631.5930
4156.0000;9560.2080
4157.0000;9465.5040
4158.0000;9335.3540
4159.0000;9175.8310
4160.0000;9013.9190
4161.0000;8902.1590
4162.0000;8810.4760
4163.0000;8711.9650
4164.0000;8617.6040
4165.0000;8545.6530
4166.0000;8485.7650
4167.0000;8393.9760
4168.0000;8355.0270
4169.0000;8337.9140
4170.0000;8282.6950
4171.0000;8279.1570
4172.0000;8266.2090
4173.0000;8207.7700
4174.0000;8199.4230
4175.0000;8203.3870
4176.0000;8184.5390
4177.0000;8126.4550
4178.0000;8118.8010
4179.0000;8106.8660
4180.0000;7985.8080
4181.0000;7916.2860
4182.0000;7892.3220
4183.0000;7870.3540
4184.0000;7867.2800
4185.0000;7864.7980
4186.0000;7855.9950
4187.0000;7865.8750
4188.0000;7889.6450
4189.0000;7919.0600
4190.0000;7943.3290
4191.0000;7924.4890
4192.0000;7919.6130
4193.0000;7973.5590
4194.0000;7953.1910
4195.0000;7899.9620
4196.0000;7860.0420
4197.0000;7831.9480
4198.0000;7800.2170
4199.0000;7765.7420
4200.0000;7738.6590
4201.0000;7731.4390
4202.0000;7740.8640
4203.0000;7749.8250
4204.0000;7750.5240
4205.0000;7742.5980
4206.0000;7739.5040
4207.0000;7767.8820
4208.0000;7776.0830
4209.0000;7763.7590
4210.0000;7764.6410
4211.0000;7779.3420
4212.0000;7798.9180
4213.0000;7806.6530
4214.0000;7789.6140
4215.0000;7755.9130
4216.0000;7725.7150
4217.0000;7714.0040
4218.0000;7688.0210
4219.0000;7649.9700
4220.0000;7622.5550
4221.0000;7631.1990
4222.0000;7664.2850
4223.0000;7677.9600
4224.0000;7618.3260
4225.0000;7533.4590
4226.0000;7506.5290
4227.0000;7584.5780
4228.0000;7546.6040
4229.0000;7487.3160
4230.0000;7532.7500
4231.0000;7545.3270
4232.0000;7548.7220
4233.0000;7552.9040
4234.0000;7559.0210
4235.0000;7510.0620
4236.0000;6728.3650
4237.0000;4799.8920
4238.0000;2558.7770
