Raman Shift ; Dark Subtracted #1
-2.0000;6482.3090
-1.0000;5982.8540
0.0000;5258.3580
1.0000;4366.7320
2.0000;3382.6260
3.0000;2435.8600
4.0000;1669.9140
5.0000;1030.1150
6.0000;605.7625
7.0000;471.3816
8.0000;380.6827
9.0000;329.8504
10.0000;369.9991
11.0000;355.4501
12.0000;229.2811
13.0000;97.0768
14.0000;2.6193
15.0000;-23.2250
16.0000;0.9088
17.0000;23.8797
18.0000;22.0732
19.0000;20.5796
20.0000;19.9999
21.0000;21.0475
22.0000;22.6610
23.0000;23.2135
24.0000;21.5671
25.0000;18.8491
26.0000;15.9081
27.0000;13.0013
28.0000;11.1885
29.0000;11.1787
30.0000;13.8579
31.0000;18.1600
32.0000;21.6328
33.0000;22.1813
34.0000;20.8409
35.0000;19.4067
36.0000;20.2234
37.0000;21.2518
38.0000;21.2319
39.0000;18.0309
40.0000;13.5749
41.0000;10.3962
42.0000;10.7322
43.0000;13.9159
44.0000;17.6185
45.0000;19.8014
46.0000;20.7802
47.0000;20.8424
48.0000;20.7336
49.0000;19.7156
50.0000;18.0007
51.0000;15.5781
52.0000;12.9169
53.0000;10.8491
54.0000;9.4686
55.0000;9.5798
56.0000;11.1139
57.0000;13.1098
58.0000;16.2660
59.0000;20.9945
60.0000;27.2919
61.0000;34.7499
62.0000;43.5425
63.0000;55.6835
64.0000;67.9442
65.0000;78.7637
66.0000;86.3650
67.0000;89.8317
68.0000;95.6833
69.0000;112.2178
70.0000;136.5717
71.0000;163.7165
72.0000;191.4938
73.0000;215.4496
74.0000;237.4756
75.0000;264.8945
76.0000;290.2983
77.0000;314.9737
78.0000;346.8480
79.0000;379.2382
80.0000;408.6462
81.0000;438.0250
82.0000;461.1467
83.0000;483.7205
84.0000;518.1343
85.0000;558.9155
86.0000;599.5949
87.0000;641.9357
88.0000;678.2369
89.0000;712.1580
90.0000;755.6174
91.0000;801.7584
92.0000;844.5535
93.0000;889.1827
94.0000;927.3104
95.0000;963.2055
96.0000;1011.4890
97.0000;1066.0630
98.0000;1118.9150
99.0000;1177.1760
100.0000;1232.8270
101.0000;1276.7440
102.0000;1321.2780
103.0000;1357.3250
104.0000;1385.6290
105.0000;1421.0210
106.0000;1458.8760
107.0000;1495.4020
108.0000;1542.7070
109.0000;1592.1880
110.0000;1636.6700
111.0000;1681.2160
112.0000;1718.8590
113.0000;1745.7080
114.0000;1776.1630
115.0000;1805.3470
116.0000;1830.6130
117.0000;1861.5790
118.0000;1895.2250
119.0000;1924.5950
120.0000;1951.5010
121.0000;1971.5390
122.0000;1984.7530
123.0000;1999.5680
124.0000;2013.9810
125.0000;2028.6330
126.0000;2051.9690
127.0000;2082.9240
128.0000;2112.1150
129.0000;2134.0490
130.0000;2144.0150
131.0000;2146.5640
132.0000;2153.6570
133.0000;2164.9690
134.0000;2177.0070
135.0000;2191.4800
136.0000;2207.0730
137.0000;2220.7330
138.0000;2231.8340
139.0000;2238.3160
140.0000;2241.8900
141.0000;2249.8680
142.0000;2262.2580
143.0000;2272.4950
144.0000;2277.8950
145.0000;2275.8770
146.0000;2272.9640
147.0000;2279.1540
148.0000;2295.1120
149.0000;2311.6870
150.0000;2319.6050
151.0000;2316.0210
152.0000;2309.1200
153.0000;2309.3150
154.0000;2317.9580
155.0000;2327.5140
156.0000;2333.2550
157.0000;2333.1470
158.0000;2329.9640
159.0000;2327.4880
160.0000;2325.6070
161.0000;2323.8230
162.0000;2321.6000
163.0000;2319.5750
164.0000;2319.2440
165.0000;2321.3150
166.0000;2326.3630
167.0000;2333.2730
168.0000;2341.8300
169.0000;2350.4640
170.0000;2358.1400
171.0000;2363.7530
172.0000;2366.1090
173.0000;2367.6390
174.0000;2373.8710
175.0000;2383.2090
176.0000;2390.6980
177.0000;2393.2950
178.0000;2389.9570
179.0000;2385.7530
180.0000;2387.0320
181.0000;2393.2990
182.0000;2401.0200
183.0000;2408.3460
184.0000;2414.0940
185.0000;2418.4520
186.0000;2422.9990
187.0000;2425.9600
188.0000;2428.1780
189.0000;2432.5380
190.0000;2436.7510
191.0000;2438.7530
192.0000;2437.0040
193.0000;2431.5020
194.0000;2424.9540
195.0000;2419.9110
196.0000;2417.0390
197.0000;2416.9900
198.0000;2420.1370
199.0000;2426.4300
200.0000;2432.0660
201.0000;2433.6360
202.0000;2431.4110
203.0000;2427.6340
204.0000;2424.0820
205.0000;2420.8960
206.0000;2419.7500
207.0000;2421.6670
208.0000;2426.7020
209.0000;2432.5780
210.0000;2437.4940
211.0000;2441.1220
212.0000;2444.0240
213.0000;2446.7040
214.0000;2448.2520
215.0000;2450.3000
216.0000;2453.5290
217.0000;2457.9820
218.0000;2464.8200
219.0000;2477.4690
220.0000;2490.9570
221.0000;2501.5960
222.0000;2506.9140
223.0000;2506.8680
224.0000;2506.1980
225.0000;2508.7400
226.0000;2511.4800
227.0000;2515.0450
228.0000;2519.5240
229.0000;2524.3200
230.0000;2529.9160
231.0000;2536.3510
232.0000;2542.4960
233.0000;2548.3550
234.0000;2553.5010
235.0000;2557.5580
236.0000;2562.6830
237.0000;2570.1660
238.0000;2576.9230
239.0000;2582.8000
240.0000;2587.2640
241.0000;2588.4920
242.0000;2587.0970
243.0000;2582.3660
244.0000;2576.6880
245.0000;2574.2880
246.0000;2576.9770
247.0000;2581.2500
248.0000;2582.9380
249.0000;2581.0020
250.0000;2578.5210
251.0000;2577.8970
252.0000;2579.7870
253.0000;2583.1710
254.0000;2587.2300
255.0000;2591.5640
256.0000;2595.6860
257.0000;2599.7880
258.0000;2602.8530
259.0000;2604.5790
260.0000;2605.2690
261.0000;2604.5440
262.0000;2604.2610
263.0000;2606.3960
264.0000;2610.8990
265.0000;2617.4780
266.0000;2627.4340
267.0000;2638.4130
268.0000;2646.8240
269.0000;2650.0770
270.0000;2647.4990
271.0000;2644.3480
272.0000;2646.8890
273.0000;2652.1470
274.0000;2657.6190
275.0000;2661.1320
276.0000;2663.1850
277.0000;2665.6000
278.0000;2670.1140
279.0000;2675.3770
280.0000;2681.8220
281.0000;2690.9800
282.0000;2699.6000
283.0000;2706.2640
284.0000;2709.5750
285.0000;2710.0260
286.0000;2712.2780
287.0000;2720.5850
288.0000;2728.6290
289.0000;2731.9660
290.0000;2726.1920
291.0000;2718.1220
292.0000;2716.7010
293.0000;2726.6550
294.0000;2740.0600
295.0000;2749.0760
296.0000;2749.9560
297.0000;2747.0020
298.0000;2746.1390
299.0000;2748.4210
300.0000;2750.4810
301.0000;2749.6850
302.0000;2745.6840
303.0000;2743.1720
304.0000;2747.0130
305.0000;2757.4910
306.0000;2769.5230
307.0000;2778.1190
308.0000;2782.1810
309.0000;2785.1740
310.0000;2793.0990
311.0000;2802.7260
312.0000;2810.4710
313.0000;2814.3110
314.0000;2813.3440
315.0000;2811.9720
316.0000;2815.6800
317.0000;2821.4690
318.0000;2827.0240
319.0000;2831.2490
320.0000;2833.1890
321.0000;2834.0560
322.0000;2835.1430
323.0000;2835.3250
324.0000;2835.7420
325.0000;2837.2010
326.0000;2839.0490
327.0000;2841.1990
328.0000;2843.4030
329.0000;2845.7710
330.0000;2849.0590
331.0000;2853.3340
332.0000;2858.2700
333.0000;2864.1290
334.0000;2870.7880
335.0000;2876.8110
336.0000;2882.5840
337.0000;2886.8130
338.0000;2889.5160
339.0000;2892.3850
340.0000;2894.9240
341.0000;2897.5230
342.0000;2902.1390
343.0000;2908.4070
344.0000;2915.2580
345.0000;2924.1700
346.0000;2933.2840
347.0000;2939.5730
348.0000;2942.4190
349.0000;2940.4240
350.0000;2937.4610
351.0000;2938.0590
352.0000;2940.6210
353.0000;2943.8110
354.0000;2947.0940
355.0000;2950.1690
356.0000;2952.6960
357.0000;2955.2970
358.0000;2956.6650
359.0000;2957.3220
360.0000;2957.6110
361.0000;2957.1480
362.0000;2956.7040
363.0000;2956.3980
364.0000;2956.8970
365.0000;2959.4080
366.0000;2964.5330
367.0000;2970.0410
368.0000;2973.5230
369.0000;2973.9370
370.0000;2971.8510
371.0000;2968.4070
372.0000;2963.5940
373.0000;2960.9210
374.0000;2964.1450
375.0000;2973.4380
376.0000;2984.1770
377.0000;2990.5080
378.0000;2992.3160
379.0000;2993.3310
380.0000;2998.0440
381.0000;3004.3520
382.0000;3011.8450
383.0000;3021.9200
384.0000;3031.4950
385.0000;3040.0000
386.0000;3048.7910
387.0000;3053.5590
388.0000;3055.5330
389.0000;3055.5460
390.0000;3052.3660
391.0000;3049.0230
392.0000;3046.5360
393.0000;3045.6560
394.0000;3047.4990
395.0000;3052.6830
396.0000;3060.0150
397.0000;3067.3340
398.0000;3073.9020
399.0000;3078.2690
400.0000;3079.9770
401.0000;3078.0990
402.0000;3076.3760
403.0000;3079.8160
404.0000;3088.2500
405.0000;3098.2040
406.0000;3108.4190
407.0000;3116.7740
408.0000;3123.8040
409.0000;3131.3020
410.0000;3136.0160
411.0000;3139.1230
412.0000;3143.7890
413.0000;3146.2050
414.0000;3145.8270
415.0000;3141.1960
416.0000;3135.2190
417.0000;3133.8590
418.0000;3140.9080
419.0000;3152.5970
420.0000;3163.3590
421.0000;3169.8830
422.0000;3174.2960
423.0000;3180.2460
424.0000;3187.4720
425.0000;3192.5180
426.0000;3194.1850
427.0000;3191.1430
428.0000;3186.2760
429.0000;3183.1160
430.0000;3182.0400
431.0000;3182.5010
432.0000;3183.9890
433.0000;3186.8480
434.0000;3190.1350
435.0000;3193.4400
436.0000;3195.9520
437.0000;3196.8840
438.0000;3194.3370
439.0000;3191.1270
440.0000;3191.7240
441.0000;3200.2060
442.0000;3212.1160
443.0000;3221.9960
444.0000;3226.9160
445.0000;3229.1120
446.0000;3233.9520
447.0000;3242.3780
448.0000;3249.2890
449.0000;3252.5430
450.0000;3250.3360
451.0000;3247.1940
452.0000;3249.6380
453.0000;3256.7600
454.0000;3263.8140
455.0000;3267.4860
456.0000;3267.5620
457.0000;3267.2410
458.0000;3268.5170
459.0000;3271.6590
460.0000;3278.5120
461.0000;3292.3290
462.0000;3308.7900
463.0000;3323.9470
464.0000;3335.0620
465.0000;3341.4170
466.0000;3347.5170
467.0000;3353.8630
468.0000;3359.6130
469.0000;3368.7500
470.0000;3381.6450
471.0000;3394.2020
472.0000;3404.9710
473.0000;3411.7290
474.0000;3418.2510
475.0000;3432.0330
476.0000;3449.0400
477.0000;3464.4320
478.0000;3478.1290
479.0000;3485.3360
480.0000;3487.5000
481.0000;3489.6730
482.0000;3486.3270
483.0000;3479.7270
484.0000;3471.1810
485.0000;3461.4480
486.0000;3452.5100
487.0000;3445.7660
488.0000;3442.4380
489.0000;3440.9370
490.0000;3441.9270
491.0000;3444.2630
492.0000;3444.4750
493.0000;3442.4300
494.0000;3439.7290
495.0000;3437.0980
496.0000;3435.0910
497.0000;3434.2880
498.0000;3434.7260
499.0000;3436.8460
500.0000;3439.7000
501.0000;3442.7700
502.0000;3445.4710
503.0000;3447.2620
504.0000;3447.8740
505.0000;3447.0420
506.0000;3445.9010
507.0000;3445.0150
508.0000;3443.7430
509.0000;3441.2590
510.0000;3437.5350
511.0000;3436.1290
512.0000;3440.4550
513.0000;3450.6630
514.0000;3461.6120
515.0000;3468.1940
516.0000;3469.9380
517.0000;3470.9160
518.0000;3476.1370
519.0000;3482.3510
520.0000;3488.4690
521.0000;3493.5940
522.0000;3497.7560
523.0000;3503.6980
524.0000;3513.6960
525.0000;3523.0870
526.0000;3530.5710
527.0000;3534.2650
528.0000;3535.8090
529.0000;3539.7920
530.0000;3545.6390
531.0000;3552.2490
532.0000;3560.5830
533.0000;3568.9910
534.0000;3576.8000
535.0000;3584.5140
536.0000;3589.9920
537.0000;3594.5000
538.0000;3599.9530
539.0000;3604.4960
540.0000;3610.9770
541.0000;3621.0030
542.0000;3632.2560
543.0000;3644.3840
544.0000;3656.7920
545.0000;3666.6830
546.0000;3674.9120
547.0000;3678.9880
548.0000;3681.5380
549.0000;3689.0970
550.0000;3698.9580
551.0000;3707.9100
552.0000;3713.6100
553.0000;3716.1010
554.0000;3720.7000
555.0000;3737.1180
556.0000;3754.8630
557.0000;3763.8170
558.0000;3756.3960
559.0000;3741.1910
560.0000;3735.2580
561.0000;3745.7860
562.0000;3760.2870
563.0000;3764.9720
564.0000;3757.4320
565.0000;3746.6500
566.0000;3742.1990
567.0000;3744.0440
568.0000;3748.9170
569.0000;3755.0200
570.0000;3761.6450
571.0000;3765.1360
572.0000;3762.3670
573.0000;3755.8320
574.0000;3751.0850
575.0000;3751.9520
576.0000;3755.2340
577.0000;3757.6230
578.0000;3757.8570
579.0000;3756.8680
580.0000;3755.0660
581.0000;3752.5220
582.0000;3750.2580
583.0000;3748.7470
584.0000;3748.8990
585.0000;3751.3690
586.0000;3759.0330
587.0000;3767.4140
588.0000;3770.1730
589.0000;3760.4860
590.0000;3745.5600
591.0000;3737.3310
592.0000;3742.1560
593.0000;3752.0150
594.0000;3758.5210
595.0000;3758.9970
596.0000;3754.2870
597.0000;3742.8360
598.0000;3726.1120
599.0000;3715.1430
600.0000;3719.9670
601.0000;3737.2070
602.0000;3753.3460
603.0000;3755.0040
604.0000;3748.4630
605.0000;3741.8510
606.0000;3740.0800
607.0000;3740.4150
608.0000;3741.8230
609.0000;3744.2330
610.0000;3748.4750
611.0000;3754.3400
612.0000;3761.6230
613.0000;3769.3120
614.0000;3778.4980
615.0000;3786.7020
616.0000;3793.2340
617.0000;3798.1660
618.0000;3801.3000
619.0000;3807.7810
620.0000;3821.6430
621.0000;3837.1160
622.0000;3853.3610
623.0000;3867.8070
624.0000;3876.7130
625.0000;3879.7550
626.0000;3874.9110
627.0000;3873.0530
628.0000;3890.7730
629.0000;3920.9930
630.0000;3944.7430
631.0000;3950.6050
632.0000;3939.1020
633.0000;3924.0180
634.0000;3914.7640
635.0000;3906.5160
636.0000;3899.9840
637.0000;3897.0670
638.0000;3893.2090
639.0000;3879.2870
640.0000;3856.6200
641.0000;3837.2450
642.0000;3828.2260
643.0000;3832.0630
644.0000;3838.5880
645.0000;3835.0150
646.0000;3829.5330
647.0000;3827.4940
648.0000;3834.1460
649.0000;3841.9830
650.0000;3841.9050
651.0000;3829.7560
652.0000;3814.7600
653.0000;3806.0040
654.0000;3806.0150
655.0000;3810.8440
656.0000;3816.4440
657.0000;3823.3130
658.0000;3828.9000
659.0000;3832.4390
660.0000;3831.7330
661.0000;3827.4030
662.0000;3818.8730
663.0000;3808.7610
664.0000;3800.3210
665.0000;3795.5840
666.0000;3796.6250
667.0000;3804.4010
668.0000;3818.1690
669.0000;3830.9910
670.0000;3836.2200
671.0000;3832.5160
672.0000;3823.8310
673.0000;3813.2000
674.0000;3801.2800
675.0000;3791.7070
676.0000;3787.1330
677.0000;3786.6540
678.0000;3786.2970
679.0000;3786.1710
680.0000;3784.6410
681.0000;3776.6420
682.0000;3764.5960
683.0000;3755.8660
684.0000;3756.7960
685.0000;3765.1540
686.0000;3772.0530
687.0000;3770.0930
688.0000;3765.6850
689.0000;3765.5020
690.0000;3772.4180
691.0000;3780.0670
692.0000;3782.1810
693.0000;3777.8800
694.0000;3773.1560
695.0000;3773.8960
696.0000;3778.9440
697.0000;3785.4800
698.0000;3791.6410
699.0000;3797.0310
700.0000;3801.8580
701.0000;3806.0700
702.0000;3808.0680
703.0000;3807.9330
704.0000;3805.2330
705.0000;3804.4730
706.0000;3812.2620
707.0000;3826.2260
708.0000;3838.1540
709.0000;3842.2810
710.0000;3838.7710
711.0000;3832.9420
712.0000;3827.0040
713.0000;3822.9070
714.0000;3825.5670
715.0000;3837.0460
716.0000;3850.5250
717.0000;3858.8350
718.0000;3860.2710
719.0000;3858.8700
720.0000;3859.4750
721.0000;3860.0740
722.0000;3861.5690
723.0000;3864.6650
724.0000;3868.7290
725.0000;3873.8150
726.0000;3879.7300
727.0000;3884.6380
728.0000;3887.5450
729.0000;3887.5380
730.0000;3886.4240
731.0000;3888.0430
732.0000;3890.2040
733.0000;3889.9820
734.0000;3883.0470
735.0000;3875.3910
736.0000;3874.8280
737.0000;3887.1210
738.0000;3901.7870
739.0000;3907.6160
740.0000;3901.7830
741.0000;3893.2900
742.0000;3893.3850
743.0000;3898.9570
744.0000;3903.7000
745.0000;3901.8430
746.0000;3896.9450
747.0000;3893.2840
748.0000;3893.2680
749.0000;3895.2650
750.0000;3897.6150
751.0000;3900.0130
752.0000;3901.8610
753.0000;3901.8420
754.0000;3900.2810
755.0000;3899.5000
756.0000;3901.8840
757.0000;3905.8980
758.0000;3909.9140
759.0000;3912.6250
760.0000;3914.2650
761.0000;3915.7020
762.0000;3916.5480
763.0000;3917.2750
764.0000;3918.9470
765.0000;3921.2370
766.0000;3924.5000
767.0000;3928.7210
768.0000;3933.5910
769.0000;3940.0090
770.0000;3948.1190
771.0000;3955.2760
772.0000;3959.6690
773.0000;3960.0400
774.0000;3959.7950
775.0000;3965.7370
776.0000;3974.7360
777.0000;3979.9000
778.0000;3974.9190
779.0000;3965.3520
780.0000;3961.1250
781.0000;3968.9670
782.0000;3980.0220
783.0000;3985.2400
784.0000;3982.0900
785.0000;3977.0780
786.0000;3977.5860
787.0000;3981.6000
788.0000;3984.9400
789.0000;3984.4750
790.0000;3982.1010
791.0000;3980.0420
792.0000;3979.0900
793.0000;3980.6980
794.0000;3986.7000
795.0000;3997.2540
796.0000;4007.4840
797.0000;4014.5850
798.0000;4016.9740
799.0000;4017.6760
800.0000;4018.6650
801.0000;4019.7170
802.0000;4024.9490
803.0000;4035.6680
804.0000;4046.3670
805.0000;4052.0600
806.0000;4050.9160
807.0000;4046.8980
808.0000;4044.6200
809.0000;4043.0700
810.0000;4043.8710
811.0000;4048.9440
812.0000;4054.7980
813.0000;4056.1140
814.0000;4050.7720
815.0000;4044.8760
816.0000;4045.5780
817.0000;4052.1540
818.0000;4058.5830
819.0000;4058.7240
820.0000;4056.0280
821.0000;4056.0300
822.0000;4062.0500
823.0000;4069.4250
824.0000;4073.5950
825.0000;4073.0280
826.0000;4070.7660
827.0000;4069.9280
828.0000;4070.4050
829.0000;4073.2180
830.0000;4078.9490
831.0000;4087.0560
832.0000;4096.9390
833.0000;4108.7290
834.0000;4117.3590
835.0000;4120.2430
836.0000;4115.7710
837.0000;4109.2320
838.0000;4107.3840
839.0000;4108.4340
840.0000;4110.5940
841.0000;4112.9610
842.0000;4115.8440
843.0000;4119.3620
844.0000;4122.9470
845.0000;4124.2290
846.0000;4120.1430
847.0000;4112.0470
848.0000;4106.7860
849.0000;4111.2340
850.0000;4120.2280
851.0000;4125.0440
852.0000;4121.0800
853.0000;4113.3120
854.0000;4106.3750
855.0000;4101.7850
856.0000;4100.6870
857.0000;4105.0250
858.0000;4113.4510
859.0000;4119.4390
860.0000;4117.2510
861.0000;4113.0250
862.0000;4115.4480
863.0000;4126.0860
864.0000;4136.7230
865.0000;4139.0810
866.0000;4133.3110
867.0000;4126.8110
868.0000;4125.6460
869.0000;4127.7580
870.0000;4131.5960
871.0000;4136.4480
872.0000;4142.5770
873.0000;4149.8730
874.0000;4157.1390
875.0000;4163.8770
876.0000;4171.5990
877.0000;4177.4290
878.0000;4181.2120
879.0000;4182.7950
880.0000;4182.0670
881.0000;4182.8980
882.0000;4185.5580
883.0000;4187.3100
884.0000;4184.4150
885.0000;4179.7300
886.0000;4180.9260
887.0000;4195.2750
888.0000;4214.6750
889.0000;4228.6440
890.0000;4231.4320
891.0000;4230.7850
892.0000;4238.2590
893.0000;4250.7050
894.0000;4262.9000
895.0000;4272.8200
896.0000;4278.8310
897.0000;4284.7710
898.0000;4291.5320
899.0000;4296.7600
900.0000;4301.9150
901.0000;4305.9530
902.0000;4310.9680
903.0000;4321.3090
904.0000;4333.3080
905.0000;4343.7160
906.0000;4350.9210
907.0000;4354.8540
908.0000;4360.0210
909.0000;4365.6240
910.0000;4370.4950
911.0000;4376.9220
912.0000;4382.2640
913.0000;4385.5000
914.0000;4387.6500
915.0000;4385.8820
916.0000;4379.6130
917.0000;4368.5610
918.0000;4359.5950
919.0000;4360.1200
920.0000;4369.8700
921.0000;4381.5250
922.0000;4389.3950
923.0000;4394.3740
924.0000;4397.6210
925.0000;4398.7430
926.0000;4398.3030
927.0000;4399.9870
928.0000;4402.7960
929.0000;4404.5000
930.0000;4402.7110
931.0000;4400.2190
932.0000;4401.5640
933.0000;4408.7190
934.0000;4418.8940
935.0000;4430.4300
936.0000;4440.5980
937.0000;4447.9110
938.0000;4452.1970
939.0000;4452.1410
940.0000;4453.3960
941.0000;4458.8400
942.0000;4464.3060
943.0000;4467.8520
944.0000;4468.4370
945.0000;4466.9570
946.0000;4464.8970
947.0000;4462.2120
948.0000;4460.6260
949.0000;4461.0700
950.0000;4463.7860
951.0000;4468.6480
952.0000;4475.0560
953.0000;4481.5970
954.0000;4487.7930
955.0000;4491.7570
956.0000;4494.8820
957.0000;4497.9930
958.0000;4498.7190
959.0000;4497.1460
960.0000;4493.0230
961.0000;4488.3020
962.0000;4484.8940
963.0000;4483.7510
964.0000;4485.0370
965.0000;4488.3090
966.0000;4494.5210
967.0000;4502.9050
968.0000;4512.8920
969.0000;4521.8410
970.0000;4529.6450
971.0000;4533.9140
972.0000;4537.6970
973.0000;4542.5070
974.0000;4546.5400
975.0000;4551.5160
976.0000;4556.5630
977.0000;4562.1880
978.0000;4570.3650
979.0000;4578.8650
980.0000;4586.4810
981.0000;4592.5090
982.0000;4596.1130
983.0000;4599.5910
984.0000;4602.4710
985.0000;4605.6020
986.0000;4613.4980
987.0000;4621.7930
988.0000;4626.5700
989.0000;4624.8210
990.0000;4618.5750
991.0000;4612.3640
992.0000;4607.8540
993.0000;4608.1920
994.0000;4617.6120
995.0000;4633.2490
996.0000;4645.4630
997.0000;4648.2180
998.0000;4644.5260
999.0000;4640.7160
1000.0000;4637.0200
1001.0000;4634.5790
1002.0000;4636.0170
1003.0000;4640.0850
1004.0000;4642.8220
1005.0000;4642.1090
1006.0000;4638.9960
1007.0000;4634.2550
1008.0000;4628.8330
1009.0000;4625.4790
1010.0000;4625.8490
1011.0000;4630.7100
1012.0000;4638.3250
1013.0000;4647.4030
1014.0000;4656.5600
1015.0000;4665.8720
1016.0000;4672.8610
1017.0000;4677.3080
1018.0000;4680.8030
1019.0000;4681.8610
1020.0000;4684.7400
1021.0000;4691.4130
1022.0000;4696.3180
1023.0000;4693.9900
1024.0000;4685.8000
1025.0000;4684.0280
1026.0000;4701.4130
1027.0000;4726.3210
1028.0000;4741.8920
1029.0000;4739.6760
1030.0000;4729.6420
1031.0000;4725.0450
1032.0000;4724.1910
1033.0000;4725.6510
1034.0000;4729.2700
1035.0000;4734.1560
1036.0000;4736.8150
1037.0000;4735.9630
1038.0000;4737.2890
1039.0000;4748.4830
1040.0000;4765.0760
1041.0000;4777.8870
1042.0000;4780.7830
1043.0000;4776.9710
1044.0000;4774.8210
1045.0000;4775.2920
1046.0000;4775.7710
1047.0000;4774.2200
1048.0000;4772.9700
1049.0000;4775.7870
1050.0000;4784.8460
1051.0000;4796.5250
1052.0000;4806.5140
1053.0000;4813.5540
1054.0000;4820.1960
1055.0000;4831.2660
1056.0000;4841.9340
1057.0000;4852.1490
1058.0000;4860.8130
1059.0000;4866.4590
1060.0000;4871.8210
1061.0000;4875.0380
1062.0000;4878.3920
1063.0000;4886.4970
1064.0000;4893.5750
1065.0000;4895.5590
1066.0000;4890.1760
1067.0000;4887.0580
1068.0000;4897.8130
1069.0000;4918.3190
1070.0000;4938.0560
1071.0000;4950.9900
1072.0000;4956.0280
1073.0000;4957.1300
1074.0000;4953.0000
1075.0000;4948.4790
1076.0000;4950.2030
1077.0000;4956.9000
1078.0000;4967.5260
1079.0000;4982.3340
1080.0000;4994.1640
1081.0000;4994.7010
1082.0000;4983.5820
1083.0000;4978.2580
1084.0000;4994.3190
1085.0000;5020.6730
1086.0000;5044.5070
1087.0000;5059.1530
1088.0000;5066.0210
1089.0000;5070.0810
1090.0000;5068.4380
1091.0000;5069.0360
1092.0000;5080.3420
1093.0000;5091.1550
1094.0000;5092.1580
1095.0000;5080.9060
1096.0000;5067.9030
1097.0000;5063.9700
1098.0000;5066.3960
1099.0000;5068.4430
1100.0000;5067.4010
1101.0000;5065.1350
1102.0000;5060.3500
1103.0000;5054.5800
1104.0000;5053.3530
1105.0000;5061.5230
1106.0000;5073.5740
1107.0000;5081.1000
1108.0000;5080.1140
1109.0000;5073.7560
1110.0000;5066.8410
1111.0000;5057.6810
1112.0000;5046.0490
1113.0000;5030.8910
1114.0000;5018.6870
1115.0000;5013.5160
1116.0000;5017.6810
1117.0000;5021.6960
1118.0000;5013.9780
1119.0000;5001.8680
1120.0000;4993.4940
1121.0000;4992.4040
1122.0000;4993.7250
1123.0000;4990.8960
1124.0000;4985.5550
1125.0000;4978.6980
1126.0000;4971.2460
1127.0000;4963.9490
1128.0000;4955.5090
1129.0000;4947.8750
1130.0000;4941.5590
1131.0000;4939.8180
1132.0000;4936.7980
1133.0000;4916.2220
1134.0000;4867.6650
1135.0000;4828.1160
1136.0000;4828.7710
1137.0000;4868.4710
1138.0000;4906.6850
1139.0000;4912.4740
1140.0000;4900.9850
1141.0000;4890.6750
1142.0000;4884.2800
1143.0000;4878.0500
1144.0000;4874.7060
1145.0000;4871.2240
1146.0000;4858.2900
1147.0000;4832.1030
1148.0000;4806.6660
1149.0000;4794.7990
1150.0000;4799.0550
1151.0000;4806.4580
1152.0000;4806.8880
1153.0000;4804.7650
1154.0000;4798.5190
1155.0000;4788.7720
1156.0000;4779.9800
1157.0000;4777.5270
1158.0000;4779.1610
1159.0000;4776.3200
1160.0000;4764.7450
1161.0000;4754.2860
1162.0000;4751.9420
1163.0000;4758.1510
1164.0000;4764.9670
1165.0000;4765.4070
1166.0000;4764.2780
1167.0000;4766.2240
1168.0000;4771.1790
1169.0000;4775.4640
1170.0000;4774.6660
1171.0000;4772.1690
1172.0000;4775.5640
1173.0000;4787.6590
1174.0000;4799.3150
1175.0000;4800.7400
1176.0000;4793.2160
1177.0000;4787.8910
1178.0000;4792.8230
1179.0000;4800.3330
1180.0000;4802.3390
1181.0000;4798.2240
1182.0000;4793.9000
1183.0000;4796.4140
1184.0000;4800.1910
1185.0000;4799.0220
1186.0000;4790.5980
1187.0000;4780.9830
1188.0000;4774.6790
1189.0000;4772.2920
1190.0000;4770.0190
1191.0000;4764.9530
1192.0000;4763.4580
1193.0000;4769.4700
1194.0000;4782.6460
1195.0000;4794.6980
1196.0000;4800.2570
1197.0000;4799.1610
1198.0000;4795.0500
1199.0000;4788.0570
1200.0000;4780.4870
1201.0000;4774.2230
1202.0000;4771.6500
1203.0000;4774.6120
1204.0000;4784.8320
1205.0000;4793.5300
1206.0000;4789.0020
1207.0000;4774.5490
1208.0000;4765.3900
1209.0000;4772.9850
1210.0000;4784.9720
1211.0000;4785.7760
1212.0000;4774.9770
1213.0000;4764.8660
1214.0000;4764.9060
1215.0000;4771.4540
1216.0000;4779.0200
1217.0000;4785.7240
1218.0000;4790.1430
1219.0000;4790.5460
1220.0000;4786.4500
1221.0000;4781.3420
1222.0000;4776.4430
1223.0000;4775.3720
1224.0000;4782.7960
1225.0000;4796.7700
1226.0000;4807.9840
1227.0000;4810.4890
1228.0000;4808.0530
1229.0000;4808.9700
1230.0000;4812.8590
1231.0000;4816.3910
1232.0000;4818.6670
1233.0000;4818.8200
1234.0000;4817.5440
1235.0000;4814.7690
1236.0000;4811.5810
1237.0000;4808.4870
1238.0000;4807.1030
1239.0000;4808.3520
1240.0000;4812.6620
1241.0000;4820.0710
1242.0000;4831.2390
1243.0000;4842.8710
1244.0000;4849.9770
1245.0000;4848.9430
1246.0000;4843.2090
1247.0000;4842.3910
1248.0000;4845.1560
1249.0000;4843.9910
1250.0000;4832.5410
1251.0000;4818.2470
1252.0000;4808.9640
1253.0000;4808.1700
1254.0000;4812.5250
1255.0000;4818.9580
1256.0000;4825.5460
1257.0000;4825.2790
1258.0000;4815.2300
1259.0000;4805.9420
1260.0000;4809.1580
1261.0000;4820.5580
1262.0000;4828.0560
1263.0000;4824.7150
1264.0000;4819.5830
1265.0000;4822.9340
1266.0000;4832.6710
1267.0000;4842.8120
1268.0000;4850.5520
1269.0000;4853.7460
1270.0000;4851.1960
1271.0000;4842.6980
1272.0000;4837.6090
1273.0000;4843.6160
1274.0000;4855.1400
1275.0000;4864.8940
1276.0000;4870.2760
1277.0000;4871.6090
1278.0000;4869.1750
1279.0000;4864.7120
1280.0000;4865.9130
1281.0000;4875.0990
1282.0000;4885.9950
1283.0000;4894.9260
1284.0000;4899.2910
1285.0000;4898.1480
1286.0000;4890.3090
1287.0000;4881.8230
1288.0000;4881.1530
1289.0000;4887.4880
1290.0000;4894.2260
1291.0000;4896.8240
1292.0000;4900.6190
1293.0000;4911.8860
1294.0000;4927.4280
1295.0000;4939.6480
1296.0000;4942.9520
1297.0000;4939.7290
1298.0000;4938.6050
1299.0000;4939.0330
1300.0000;4937.9830
1301.0000;4934.1930
1302.0000;4929.1130
1303.0000;4923.2710
1304.0000;4918.4070
1305.0000;4917.6430
1306.0000;4924.8340
1307.0000;4934.8730
1308.0000;4937.3790
1309.0000;4928.4970
1310.0000;4921.2560
1311.0000;4927.9790
1312.0000;4943.2270
1313.0000;4958.3300
1314.0000;4968.1310
1315.0000;4971.9580
1316.0000;4969.6620
1317.0000;4961.7710
1318.0000;4957.8730
1319.0000;4963.4730
1320.0000;4971.7310
1321.0000;4976.3390
1322.0000;4976.6850
1323.0000;4973.5520
1324.0000;4966.2940
1325.0000;4959.9300
1326.0000;4960.1780
1327.0000;4967.4210
1328.0000;4976.7680
1329.0000;4984.6470
1330.0000;4990.3780
1331.0000;4993.1050
1332.0000;4991.8040
1333.0000;4990.4260
1334.0000;4992.9240
1335.0000;4996.2700
1336.0000;4998.2540
1337.0000;4998.6390
1338.0000;4999.7610
1339.0000;5004.1100
1340.0000;5009.0900
1341.0000;5013.9310
1342.0000;5017.0480
1343.0000;5016.5000
1344.0000;5010.7410
1345.0000;5002.6630
1346.0000;4997.9740
1347.0000;4999.1860
1348.0000;5002.3610
1349.0000;5004.1640
1350.0000;5004.7110
1351.0000;5002.4770
1352.0000;4996.8710
1353.0000;4991.9240
1354.0000;4992.5130
1355.0000;4995.5710
1356.0000;4992.9320
1357.0000;4982.2540
1358.0000;4974.4990
1359.0000;4981.3200
1360.0000;4997.1030
1361.0000;5007.0550
1362.0000;5005.0460
1363.0000;4998.8370
1364.0000;4998.4510
1365.0000;4999.9740
1366.0000;4997.6850
1367.0000;4988.7630
1368.0000;4983.0900
1369.0000;4990.2560
1370.0000;5006.6670
1371.0000;5018.7920
1372.0000;5019.0860
1373.0000;5015.1830
1374.0000;5017.1480
1375.0000;5021.6860
1376.0000;5023.8790
1377.0000;5021.2150
1378.0000;5017.3760
1379.0000;5016.5260
1380.0000;5018.3140
1381.0000;5020.2980
1382.0000;5021.4190
1383.0000;5021.2990
1384.0000;5018.1400
1385.0000;5013.7050
1386.0000;5014.2040
1387.0000;5024.2080
1388.0000;5035.0900
1389.0000;5036.1820
1390.0000;5028.9080
1391.0000;5025.0860
1392.0000;5032.0340
1393.0000;5041.4940
1394.0000;5046.6190
1395.0000;5046.5560
1396.0000;5045.4170
1397.0000;5045.2420
1398.0000;5045.8900
1399.0000;5049.3060
1400.0000;5054.7890
1401.0000;5059.7700
1402.0000;5061.8330
1403.0000;5064.2370
1404.0000;5072.9170
1405.0000;5085.1320
1406.0000;5094.4430
1407.0000;5096.2800
1408.0000;5095.0600
1409.0000;5099.6280
1410.0000;5108.1690
1411.0000;5117.2660
1412.0000;5125.8430
1413.0000;5130.4260
1414.0000;5131.0960
1415.0000;5125.9770
1416.0000;5117.3700
1417.0000;5106.2250
1418.0000;5098.0370
1419.0000;5099.9890
1420.0000;5111.0210
1421.0000;5115.7860
1422.0000;5104.4650
1423.0000;5090.4960
1424.0000;5087.8500
1425.0000;5096.1060
1426.0000;5105.2890
1427.0000;5109.4320
1428.0000;5112.0970
1429.0000;5116.6190
1430.0000;5121.1530
1431.0000;5125.3440
1432.0000;5128.7080
1433.0000;5131.6780
1434.0000;5137.7590
1435.0000;5144.2080
1436.0000;5147.4240
1437.0000;5144.8890
1438.0000;5140.3880
1439.0000;5138.8960
1440.0000;5140.7800
1441.0000;5147.2230
1442.0000;5159.5310
1443.0000;5166.1880
1444.0000;5153.7990
1445.0000;5128.0630
1446.0000;5111.8420
1447.0000;5115.6460
1448.0000;5127.4240
1449.0000;5132.9260
1450.0000;5133.9820
1451.0000;5132.3540
1452.0000;5128.0380
1453.0000;5122.0880
1454.0000;5115.5740
1455.0000;5111.4010
1456.0000;5113.0100
1457.0000;5122.0830
1458.0000;5131.3920
1459.0000;5133.8590
1460.0000;5130.0010
1461.0000;5122.9650
1462.0000;5113.7140
1463.0000;5112.0190
1464.0000;5129.7930
1465.0000;5155.3170
1466.0000;5165.5390
1467.0000;5153.7520
1468.0000;5135.1000
1469.0000;5124.1180
1470.0000;5119.8220
1471.0000;5123.8480
1472.0000;5136.7910
1473.0000;5148.1170
1474.0000;5145.2150
1475.0000;5137.1330
1476.0000;5139.0350
1477.0000;5151.0770
1478.0000;5160.9860
1479.0000;5159.4030
1480.0000;5151.6560
1481.0000;5147.2760
1482.0000;5146.2780
1483.0000;5144.3990
1484.0000;5139.2070
1485.0000;5133.1130
1486.0000;5125.4840
1487.0000;5119.0950
1488.0000;5116.0020
1489.0000;5117.0400
1490.0000;5123.8520
1491.0000;5135.9600
1492.0000;5150.7260
1493.0000;5159.6420
1494.0000;5157.4590
1495.0000;5152.2000
1496.0000;5157.0210
1497.0000;5166.7610
1498.0000;5172.9310
1499.0000;5170.9800
1500.0000;5166.6000
1501.0000;5167.2230
1502.0000;5169.0560
1503.0000;5166.0600
1504.0000;5156.5900
1505.0000;5151.4730
1506.0000;5159.6140
1507.0000;5175.6370
1508.0000;5189.8330
1509.0000;5197.4170
1510.0000;5199.6650
1511.0000;5197.9770
1512.0000;5193.7340
1513.0000;5196.4050
1514.0000;5206.3630
1515.0000;5215.6890
1516.0000;5219.9580
1517.0000;5218.8400
1518.0000;5213.4070
1519.0000;5204.8860
1520.0000;5199.8250
1521.0000;5203.4800
1522.0000;5211.6640
1523.0000;5218.8740
1524.0000;5223.8530
1525.0000;5223.6390
1526.0000;5215.1970
1527.0000;5210.9240
1528.0000;5227.3550
1529.0000;5254.7290
1530.0000;5270.4110
1531.0000;5264.4690
1532.0000;5250.6470
1533.0000;5245.2290
1534.0000;5243.9510
1535.0000;5244.0720
1536.0000;5245.7100
1537.0000;5248.5740
1538.0000;5251.6900
1539.0000;5254.0560
1540.0000;5254.1650
1541.0000;5251.8510
1542.0000;5250.7080
1543.0000;5253.6170
1544.0000;5257.9380
1545.0000;5261.9100
1546.0000;5263.6410
1547.0000;5259.9930
1548.0000;5248.2290
1549.0000;5237.8200
1550.0000;5239.4700
1551.0000;5250.6220
1552.0000;5259.0280
1553.0000;5258.0840
1554.0000;5259.5160
1555.0000;5279.3690
1556.0000;5302.1710
1557.0000;5306.0450
1558.0000;5283.6320
1559.0000;5257.0070
1560.0000;5244.8620
1561.0000;5244.7150
1562.0000;5251.7960
1563.0000;5265.0050
1564.0000;5270.2220
1565.0000;5253.5180
1566.0000;5233.1070
1567.0000;5232.8490
1568.0000;5249.9330
1569.0000;5259.8350
1570.0000;5248.1210
1571.0000;5236.4300
1572.0000;5247.8790
1573.0000;5272.8510
1574.0000;5289.1490
1575.0000;5287.2130
1576.0000;5277.3680
1577.0000;5272.2580
1578.0000;5266.8190
1579.0000;5258.9220
1580.0000;5250.1130
1581.0000;5242.4690
1582.0000;5235.4560
1583.0000;5233.3340
1584.0000;5236.4520
1585.0000;5244.6670
1586.0000;5250.7250
1587.0000;5249.2920
1588.0000;5245.4490
1589.0000;5244.5320
1590.0000;5247.1460
1591.0000;5255.6410
1592.0000;5270.8150
1593.0000;5281.7640
1594.0000;5276.4700
1595.0000;5263.4770
1596.0000;5263.8140
1597.0000;5280.6920
1598.0000;5295.0700
1599.0000;5291.8410
1600.0000;5280.9450
1601.0000;5278.1120
1602.0000;5282.1350
1603.0000;5281.6260
1604.0000;5269.7570
1605.0000;5258.8070
1606.0000;5260.5610
1607.0000;5272.5020
1608.0000;5279.9500
1609.0000;5277.6790
1610.0000;5276.3320
1611.0000;5286.4910
1612.0000;5300.5860
1613.0000;5310.6220
1614.0000;5313.5770
1615.0000;5315.3950
1616.0000;5323.1780
1617.0000;5327.5230
1618.0000;5319.9990
1619.0000;5304.5160
1620.0000;5299.3410
1621.0000;5315.3530
1622.0000;5335.4420
1623.0000;5340.8220
1624.0000;5334.8620
1625.0000;5327.9930
1626.0000;5323.2350
1627.0000;5320.4460
1628.0000;5320.8440
1629.0000;5324.1780
1630.0000;5327.5790
1631.0000;5330.1850
1632.0000;5331.5600
1633.0000;5331.1540
1634.0000;5329.1290
1635.0000;5324.8820
1636.0000;5321.5940
1637.0000;5326.4000
1638.0000;5341.8000
1639.0000;5354.8430
1640.0000;5351.0130
1641.0000;5339.2600
1642.0000;5338.3930
1643.0000;5350.5240
1644.0000;5363.6510
1645.0000;5371.5820
1646.0000;5374.1890
1647.0000;5373.8060
1648.0000;5369.5050
1649.0000;5365.6370
1650.0000;5364.7510
1651.0000;5365.7720
1652.0000;5368.6810
1653.0000;5371.8060
1654.0000;5371.8630
1655.0000;5367.9600
1656.0000;5362.6520
1657.0000;5357.7420
1658.0000;5354.6960
1659.0000;5355.4690
1660.0000;5358.7570
1661.0000;5356.2580
1662.0000;5343.8020
1663.0000;5331.3710
1664.0000;5325.5610
1665.0000;5327.5370
1666.0000;5332.5350
1667.0000;5339.8860
1668.0000;5344.8100
1669.0000;5343.0780
1670.0000;5337.0110
1671.0000;5332.1830
1672.0000;5328.2920
1673.0000;5322.4230
1674.0000;5313.3980
1675.0000;5307.4780
1676.0000;5308.1610
1677.0000;5314.5690
1678.0000;5319.7200
1679.0000;5321.7540
1680.0000;5321.6570
1681.0000;5320.4590
1682.0000;5316.4690
1683.0000;5308.0870
1684.0000;5299.0600
1685.0000;5297.4050
1686.0000;5308.1690
1687.0000;5317.4700
1688.0000;5309.3520
1689.0000;5293.7310
1690.0000;5286.3330
1691.0000;5290.4540
1692.0000;5292.3650
1693.0000;5281.3160
1694.0000;5271.4830
1695.0000;5277.0520
1696.0000;5292.6090
1697.0000;5300.3510
1698.0000;5292.1480
1699.0000;5282.1000
1700.0000;5284.2140
1701.0000;5290.5950
1702.0000;5288.5870
1703.0000;5280.9740
1704.0000;5287.3320
1705.0000;5319.5450
1706.0000;5351.1390
1707.0000;5352.3460
1708.0000;5329.6950
1709.0000;5315.6030
1710.0000;5319.3240
1711.0000;5326.7750
1712.0000;5329.3670
1713.0000;5329.0850
1714.0000;5323.9230
1715.0000;5316.0620
1716.0000;5315.0760
1717.0000;5326.5600
1718.0000;5335.7600
1719.0000;5325.8290
1720.0000;5307.4620
1721.0000;5300.1000
1722.0000;5307.8390
1723.0000;5317.9870
1724.0000;5322.1980
1725.0000;5323.4720
1726.0000;5322.9170
1727.0000;5321.0300
1728.0000;5323.3740
1729.0000;5331.2760
1730.0000;5337.4230
1731.0000;5335.3020
1732.0000;5330.2240
1733.0000;5332.0700
1734.0000;5339.4540
1735.0000;5343.6230
1736.0000;5340.0990
1737.0000;5333.8670
1738.0000;5330.4800
1739.0000;5329.3580
1740.0000;5330.2900
1741.0000;5332.9070
1742.0000;5331.6330
1743.0000;5320.6270
1744.0000;5311.1010
1745.0000;5315.0100
1746.0000;5328.0010
1747.0000;5334.4850
1748.0000;5328.8310
1749.0000;5319.8620
1750.0000;5313.3440
1751.0000;5309.8260
1752.0000;5309.5350
1753.0000;5314.1750
1754.0000;5322.6640
1755.0000;5333.9720
1756.0000;5344.1210
1757.0000;5349.9400
1758.0000;5350.5170
1759.0000;5350.3850
1760.0000;5349.8770
1761.0000;5353.9380
1762.0000;5367.3680
1763.0000;5376.1020
1764.0000;5364.7980
1765.0000;5342.3640
1766.0000;5329.5610
1767.0000;5333.4950
1768.0000;5344.2090
1769.0000;5356.1260
1770.0000;5365.4950
1771.0000;5366.4290
1772.0000;5358.7930
1773.0000;5350.8070
1774.0000;5345.4740
1775.0000;5344.4460
1776.0000;5350.9690
1777.0000;5358.0810
1778.0000;5353.3760
1779.0000;5338.7220
1780.0000;5326.6020
1781.0000;5322.2990
1782.0000;5324.5000
1783.0000;5331.3880
1784.0000;5339.9700
1785.0000;5343.5570
1786.0000;5339.1310
1787.0000;5326.1540
1788.0000;5303.5270
1789.0000;5284.6610
1790.0000;5278.9530
1791.0000;5286.3900
1792.0000;5294.3320
1793.0000;5300.7160
1794.0000;5303.1000
1795.0000;5298.4070
1796.0000;5292.5120
1797.0000;5292.1970
1798.0000;5296.5010
1799.0000;5302.7140
1800.0000;5309.4210
1801.0000;5315.2760
1802.0000;5318.5300
1803.0000;5319.7710
1804.0000;5324.7770
1805.0000;5327.7910
1806.0000;5321.7350
1807.0000;5305.3790
1808.0000;5290.0600
1809.0000;5283.1110
1810.0000;5282.0990
1811.0000;5279.4430
1812.0000;5277.3790
1813.0000;5272.9790
1814.0000;5266.1930
1815.0000;5264.8880
1816.0000;5275.7570
1817.0000;5287.4620
1818.0000;5284.4660
1819.0000;5271.0110
1820.0000;5266.0470
1821.0000;5275.3370
1822.0000;5285.1550
1823.0000;5283.7580
1824.0000;5279.9840
1825.0000;5285.8300
1826.0000;5296.3100
1827.0000;5298.1850
1828.0000;5287.1420
1829.0000;5271.7020
1830.0000;5257.9520
1831.0000;5250.7760
1832.0000;5252.6680
1833.0000;5264.6250
1834.0000;5277.2850
1835.0000;5285.8960
1836.0000;5289.2310
1837.0000;5285.6810
1838.0000;5279.2830
1839.0000;5281.4770
1840.0000;5289.1790
1841.0000;5289.2310
1842.0000;5277.1610
1843.0000;5267.7700
1844.0000;5274.2630
1845.0000;5285.5420
1846.0000;5285.1370
1847.0000;5276.1520
1848.0000;5272.6830
1849.0000;5279.7500
1850.0000;5288.5090
1851.0000;5291.5960
1852.0000;5292.9380
1853.0000;5298.4790
1854.0000;5305.6300
1855.0000;5310.9700
1856.0000;5312.5470
1857.0000;5311.4950
1858.0000;5308.9270
1859.0000;5307.1670
1860.0000;5312.6080
1861.0000;5321.4150
1862.0000;5322.1840
1863.0000;5311.6010
1864.0000;5304.2430
1865.0000;5312.5740
1866.0000;5324.4720
1867.0000;5324.4740
1868.0000;5316.2870
1869.0000;5313.4580
1870.0000;5319.3040
1871.0000;5324.9720
1872.0000;5324.5180
1873.0000;5321.8670
1874.0000;5321.2460
1875.0000;5322.3650
1876.0000;5324.7200
1877.0000;5328.1230
1878.0000;5332.0720
1879.0000;5336.2520
1880.0000;5339.0590
1881.0000;5338.8340
1882.0000;5337.8560
1883.0000;5343.7460
1884.0000;5356.2280
1885.0000;5367.6170
1886.0000;5373.3290
1887.0000;5374.1450
1888.0000;5373.7440
1889.0000;5371.5030
1890.0000;5372.7310
1891.0000;5377.3280
1892.0000;5381.2610
1893.0000;5382.2120
1894.0000;5383.0530
1895.0000;5385.6330
1896.0000;5391.1340
1897.0000;5403.9120
1898.0000;5420.1100
1899.0000;5432.6340
1900.0000;5437.0230
1901.0000;5432.1680
1902.0000;5419.2450
1903.0000;5404.9270
1904.0000;5405.1630
1905.0000;5415.8400
1906.0000;5413.1110
1907.0000;5389.6910
1908.0000;5371.7560
1909.0000;5376.3470
1910.0000;5392.5400
1911.0000;5402.0890
1912.0000;5405.8890
1913.0000;5405.3220
1914.0000;5400.4620
1915.0000;5400.4790
1916.0000;5413.3710
1917.0000;5427.2710
1918.0000;5431.5410
1919.0000;5428.1170
1920.0000;5426.7750
1921.0000;5428.5220
1922.0000;5433.3050
1923.0000;5441.8050
1924.0000;5450.1350
1925.0000;5456.6600
1926.0000;5459.4290
1927.0000;5461.1670
1928.0000;5461.0960
1929.0000;5462.1900
1930.0000;5465.4450
1931.0000;5469.9810
1932.0000;5476.3900
1933.0000;5480.7230
1934.0000;5479.5300
1935.0000;5473.6340
1936.0000;5470.0680
1937.0000;5470.7670
1938.0000;5473.1540
1939.0000;5476.1910
1940.0000;5478.0830
1941.0000;5476.1760
1942.0000;5472.0400
1943.0000;5468.7530
1944.0000;5468.3870
1945.0000;5474.9710
1946.0000;5490.6700
1947.0000;5506.6240
1948.0000;5514.8510
1949.0000;5517.4110
1950.0000;5525.3900
1951.0000;5533.1550
1952.0000;5534.0170
1953.0000;5525.0490
1954.0000;5512.1930
1955.0000;5498.2400
1956.0000;5491.2720
1957.0000;5497.5730
1958.0000;5514.7410
1959.0000;5527.8390
1960.0000;5532.7920
1961.0000;5535.0980
1962.0000;5535.6640
1963.0000;5540.9000
1964.0000;5561.8780
1965.0000;5586.2510
1966.0000;5600.9610
1967.0000;5601.1990
1968.0000;5595.5970
1969.0000;5586.2610
1970.0000;5582.2330
1971.0000;5593.8560
1972.0000;5608.7220
1973.0000;5612.0680
1974.0000;5606.8160
1975.0000;5604.4380
1976.0000;5605.6960
1977.0000;5604.4210
1978.0000;5597.7080
1979.0000;5596.7000
1980.0000;5614.3020
1981.0000;5634.5560
1982.0000;5633.4140
1983.0000;5615.2800
1984.0000;5609.9810
1985.0000;5625.5030
1986.0000;5639.0970
1987.0000;5634.7700
1988.0000;5629.7900
1989.0000;5644.5540
1990.0000;5666.2850
1991.0000;5675.5940
1992.0000;5668.4780
1993.0000;5657.9060
1994.0000;5649.6590
1995.0000;5645.9640
1996.0000;5649.6170
1997.0000;5659.5550
1998.0000;5670.2800
1999.0000;5680.3140
2000.0000;5689.8760
2001.0000;5696.4210
2002.0000;5699.6700
2003.0000;5699.9230
2004.0000;5697.6470
2005.0000;5696.0890
2006.0000;5695.7920
2007.0000;5699.4960
2008.0000;5706.0600
2009.0000;5711.0170
2010.0000;5712.1400
2011.0000;5710.6110
2012.0000;5706.9780
2013.0000;5704.9150
2014.0000;5709.0210
2015.0000;5717.7590
2016.0000;5726.8910
2017.0000;5734.8030
2018.0000;5743.6430
2019.0000;5753.0850
2020.0000;5758.0160
2021.0000;5758.4600
2022.0000;5751.9790
2023.0000;5739.0230
2024.0000;5725.4880
2025.0000;5722.8680
2026.0000;5733.8760
2027.0000;5745.9830
2028.0000;5752.5480
2029.0000;5755.2060
2030.0000;5754.8580
2031.0000;5751.8620
2032.0000;5752.0220
2033.0000;5753.4300
2034.0000;5751.4070
2035.0000;5746.2390
2036.0000;5744.9850
2037.0000;5752.2500
2038.0000;5756.4230
2039.0000;5745.7000
2040.0000;5730.7970
2041.0000;5728.3080
2042.0000;5734.9280
2043.0000;5734.1950
2044.0000;5724.0300
2045.0000;5717.0550
2046.0000;5720.4350
2047.0000;5724.7000
2048.0000;5720.6310
2049.0000;5711.9720
2050.0000;5702.0030
2051.0000;5693.6350
2052.0000;5690.5470
2053.0000;5694.4530
2054.0000;5699.9160
2055.0000;5702.7900
2056.0000;5702.6000
2057.0000;5694.8620
2058.0000;5689.1230
2059.0000;5700.0790
2060.0000;5722.9430
2061.0000;5740.2240
2062.0000;5744.3330
2063.0000;5745.7710
2064.0000;5750.0820
2065.0000;5753.5000
2066.0000;5758.0730
2067.0000;5761.0020
2068.0000;5762.7540
2069.0000;5761.9020
2070.0000;5759.0130
2071.0000;5754.2780
2072.0000;5748.7270
2073.0000;5742.2830
2074.0000;5742.9430
2075.0000;5756.7180
2076.0000;5775.8760
2077.0000;5790.0520
2078.0000;5792.4700
2079.0000;5777.1430
2080.0000;5746.6810
2081.0000;5727.0500
2082.0000;5736.0020
2083.0000;5749.6240
2084.0000;5738.5990
2085.0000;5726.1910
2086.0000;5734.2460
2087.0000;5757.6170
2088.0000;5777.8330
2089.0000;5789.4140
2090.0000;5795.2890
2091.0000;5795.4760
2092.0000;5790.2940
2093.0000;5785.3200
2094.0000;5778.1690
2095.0000;5765.4280
2096.0000;5756.5890
2097.0000;5765.4700
2098.0000;5791.1210
2099.0000;5815.5380
2100.0000;5827.6890
2101.0000;5831.0710
2102.0000;5828.4740
2103.0000;5823.5320
2104.0000;5831.8910
2105.0000;5840.7460
2106.0000;5830.0970
2107.0000;5804.8000
2108.0000;5790.7060
2109.0000;5796.3950
2110.0000;5806.4430
2111.0000;5809.9330
2112.0000;5814.8000
2113.0000;5827.5910
2114.0000;5838.6610
2115.0000;5841.5940
2116.0000;5834.6140
2117.0000;5824.3320
2118.0000;5814.2980
2119.0000;5812.9580
2120.0000;5825.3500
2121.0000;5841.2620
2122.0000;5852.7510
2123.0000;5854.9740
2124.0000;5842.5090
2125.0000;5824.7400
2126.0000;5827.6840
2127.0000;5849.1780
2128.0000;5860.9410
2129.0000;5851.2340
2130.0000;5839.8290
2131.0000;5839.6580
2132.0000;5844.6420
2133.0000;5851.5630
2134.0000;5856.9690
2135.0000;5853.9130
2136.0000;5843.9580
2137.0000;5835.0940
2138.0000;5831.2950
2139.0000;5836.1030
2140.0000;5851.3900
2141.0000;5867.0130
2142.0000;5874.3150
2143.0000;5873.3030
2144.0000;5868.1620
2145.0000;5860.6970
2146.0000;5862.4260
2147.0000;5871.1760
2148.0000;5869.3080
2149.0000;5852.1610
2150.0000;5829.5600
2151.0000;5806.4890
2152.0000;5796.8000
2153.0000;5812.3160
2154.0000;5837.7810
2155.0000;5836.5050
2156.0000;5817.3400
2157.0000;5809.5790
2158.0000;5816.7130
2159.0000;5821.7700
2160.0000;5818.3960
2161.0000;5816.3810
2162.0000;5820.9880
2163.0000;5828.8510
2164.0000;5837.1490
2165.0000;5843.4910
2166.0000;5846.3610
2167.0000;5845.3790
2168.0000;5849.4060
2169.0000;5856.9840
2170.0000;5852.0450
2171.0000;5828.3400
2172.0000;5798.9030
2173.0000;5771.0630
2174.0000;5758.2080
2175.0000;5762.8850
2176.0000;5785.0640
2177.0000;5801.8040
2178.0000;5812.6120
2179.0000;5828.3820
2180.0000;5845.3580
2181.0000;5848.8140
2182.0000;5831.2830
2183.0000;5814.9760
2184.0000;5822.8470
2185.0000;5838.0020
2186.0000;5839.2170
2187.0000;5834.3990
2188.0000;5839.0480
2189.0000;5850.2490
2190.0000;5855.1800
2191.0000;5850.2300
2192.0000;5842.6200
2193.0000;5835.9150
2194.0000;5833.6360
2195.0000;5839.3940
2196.0000;5847.8110
2197.0000;5848.9840
2198.0000;5847.8010
2199.0000;5857.5770
2200.0000;5871.3870
2201.0000;5868.2510
2202.0000;5844.8000
2203.0000;5832.4060
2204.0000;5846.9370
2205.0000;5861.1100
2206.0000;5850.9010
2207.0000;5839.1810
2208.0000;5851.8660
2209.0000;5873.4580
2210.0000;5877.6260
2211.0000;5866.7710
2212.0000;5863.0940
2213.0000;5869.3050
2214.0000;5872.1430
2215.0000;5866.3210
2216.0000;5866.8880
2217.0000;5886.5710
2218.0000;5901.8190
2219.0000;5888.6920
2220.0000;5862.9590
2221.0000;5854.7330
2222.0000;5861.0260
2223.0000;5862.7180
2224.0000;5859.3700
2225.0000;5860.1940
2226.0000;5867.1960
2227.0000;5874.6100
2228.0000;5878.0630
2229.0000;5880.3560
2230.0000;5886.3590
2231.0000;5889.9590
2232.0000;5886.6690
2233.0000;5879.0260
2234.0000;5876.3610
2235.0000;5878.3460
2236.0000;5876.5290
2237.0000;5869.9200
2238.0000;5866.4440
2239.0000;5869.9010
2240.0000;5876.0000
2241.0000;5881.5970
2242.0000;5883.6670
2243.0000;5878.3560
2244.0000;5870.3940
2245.0000;5870.4400
2246.0000;5876.7570
2247.0000;5880.5940
2248.0000;5879.7840
2249.0000;5874.0680
2250.0000;5864.0700
2251.0000;5860.6650
2252.0000;5871.0660
2253.0000;5883.8910
2254.0000;5887.8540
2255.0000;5886.6680
2256.0000;5885.5350
2257.0000;5885.4850
2258.0000;5893.2390
2259.0000;5904.9430
2260.0000;5909.5470
2261.0000;5904.0050
2262.0000;5896.8500
2263.0000;5892.1160
2264.0000;5889.5790
2265.0000;5889.6770
2266.0000;5893.1170
2267.0000;5900.1600
2268.0000;5905.1280
2269.0000;5896.8710
2270.0000;5886.5090
2271.0000;5899.3850
2272.0000;5931.4540
2273.0000;5952.9370
2274.0000;5954.0830
2275.0000;5943.7100
2276.0000;5925.6580
2277.0000;5913.5010
2278.0000;5919.3570
2279.0000;5937.2320
2280.0000;5958.9120
2281.0000;5975.2990
2282.0000;5974.2160
2283.0000;5960.9370
2284.0000;5961.8440
2285.0000;5974.1390
2286.0000;5978.8620
2287.0000;5972.2940
2288.0000;5965.8960
2289.0000;5964.8940
2290.0000;5965.8900
2291.0000;5967.3690
2292.0000;5969.6410
2293.0000;5972.8300
2294.0000;5973.3300
2295.0000;5967.7720
2296.0000;5958.2480
2297.0000;5947.9570
2298.0000;5941.3440
2299.0000;5943.0480
2300.0000;5954.1420
2301.0000;5967.3420
2302.0000;5977.2130
2303.0000;5980.9460
2304.0000;5975.3680
2305.0000;5971.7270
2306.0000;5985.2990
2307.0000;5996.5530
2308.0000;5984.6610
2309.0000;5963.5290
2310.0000;5962.3470
2311.0000;5973.7580
2312.0000;5968.4720
2313.0000;5948.9140
2314.0000;5940.6510
2315.0000;5950.9260
2316.0000;5970.2110
2317.0000;5991.8930
2318.0000;5999.3110
2319.0000;5976.4330
2320.0000;5953.2680
2321.0000;5966.5360
2322.0000;5995.2350
2323.0000;6010.6800
2324.0000;6017.4780
2325.0000;6034.1010
2326.0000;6050.6700
2327.0000;6053.9520
2328.0000;6041.7360
2329.0000;6034.5700
2330.0000;6040.5050
2331.0000;6048.7880
2332.0000;6054.9520
2333.0000;6056.8990
2334.0000;6051.5210
2335.0000;6047.2000
2336.0000;6055.1320
2337.0000;6067.9180
2338.0000;6072.3310
2339.0000;6074.6230
2340.0000;6094.1050
2341.0000;6120.9790
2342.0000;6129.1400
2343.0000;6114.2080
2344.0000;6105.0660
2345.0000;6111.8680
2346.0000;6119.1960
2347.0000;6120.4280
2348.0000;6121.8930
2349.0000;6127.0830
2350.0000;6133.9000
2351.0000;6143.6280
2352.0000;6149.5890
2353.0000;6144.5170
2354.0000;6136.9270
2355.0000;6148.6060
2356.0000;6172.2880
2357.0000;6181.4440
2358.0000;6171.6170
2359.0000;6162.7700
2360.0000;6160.2940
2361.0000;6157.6770
2362.0000;6153.3520
2363.0000;6151.8140
2364.0000;6154.7710
2365.0000;6160.7210
2366.0000;6169.1910
2367.0000;6171.9990
2368.0000;6157.0060
2369.0000;6140.3210
2370.0000;6151.7420
2371.0000;6181.4280
2372.0000;6196.1350
2373.0000;6191.9540
2374.0000;6186.2660
2375.0000;6183.0640
2376.0000;6188.0610
2377.0000;6203.6890
2378.0000;6219.7090
2379.0000;6229.3110
2380.0000;6232.3100
2381.0000;6229.6120
2382.0000;6225.9220
2383.0000;6230.9300
2384.0000;6239.7730
2385.0000;6248.8360
2386.0000;6254.5620
2387.0000;6255.0240
2388.0000;6249.8730
2389.0000;6246.9100
2390.0000;6245.3660
2391.0000;6236.6840
2392.0000;6222.5340
2393.0000;6216.7440
2394.0000;6225.2500
2395.0000;6239.8370
2396.0000;6254.5550
2397.0000;6263.5810
2398.0000;6260.9210
2399.0000;6255.6500
2400.0000;6261.2880
2401.0000;6270.5730
2402.0000;6276.5690
2403.0000;6281.5280
2404.0000;6292.1410
2405.0000;6303.4930
2406.0000;6312.6470
2407.0000;6314.6890
2408.0000;6306.1920
2409.0000;6290.1860
2410.0000;6287.7500
2411.0000;6305.6780
2412.0000;6317.4160
2413.0000;6310.7400
2414.0000;6302.7140
2415.0000;6303.9570
2416.0000;6309.4380
2417.0000;6315.6270
2418.0000;6324.1000
2419.0000;6337.7380
2420.0000;6346.8980
2421.0000;6343.3620
2422.0000;6332.2810
2423.0000;6332.1380
2424.0000;6338.3170
2425.0000;6334.5670
2426.0000;6323.4290
2427.0000;6323.0740
2428.0000;6334.3920
2429.0000;6334.3710
2430.0000;6317.8600
2431.0000;6309.9190
2432.0000;6322.8520
2433.0000;6329.7770
2434.0000;6312.7260
2435.0000;6296.2470
2436.0000;6301.8170
2437.0000;6310.4970
2438.0000;6296.8190
2439.0000;6284.1060
2440.0000;6299.2280
2441.0000;6326.9700
2442.0000;6338.1220
2443.0000;6333.6280
2444.0000;6328.7120
2445.0000;6323.7910
2446.0000;6321.9420
2447.0000;6325.2590
2448.0000;6335.3390
2449.0000;6349.4950
2450.0000;6355.6040
2451.0000;6347.4990
2452.0000;6338.9530
2453.0000;6337.8210
2454.0000;6338.7500
2455.0000;6338.5970
2456.0000;6340.5270
2457.0000;6345.1980
2458.0000;6351.5000
2459.0000;6362.4540
2460.0000;6364.6450
2461.0000;6344.3350
2462.0000;6315.4350
2463.0000;6304.8540
2464.0000;6312.2940
2465.0000;6320.0950
2466.0000;6327.4390
2467.0000;6332.8360
2468.0000;6333.0910
2469.0000;6325.2990
2470.0000;6311.2870
2471.0000;6307.0780
2472.0000;6318.0130
2473.0000;6323.2770
2474.0000;6313.7030
2475.0000;6304.3910
2476.0000;6304.3270
2477.0000;6309.1580
2478.0000;6315.9620
2479.0000;6321.0460
2480.0000;6318.4700
2481.0000;6316.2520
2482.0000;6324.0120
2483.0000;6338.6790
2484.0000;6357.4370
2485.0000;6374.2860
2486.0000;6386.8160
2487.0000;6390.9800
2488.0000;6395.1420
2489.0000;6396.3640
2490.0000;6396.4730
2491.0000;6394.7190
2492.0000;6390.6850
2493.0000;6385.9970
2494.0000;6386.7730
2495.0000;6394.1050
2496.0000;6397.2820
2497.0000;6392.1230
2498.0000;6390.2380
2499.0000;6397.3490
2500.0000;6401.9620
2501.0000;6396.3370
2502.0000;6394.0750
2503.0000;6405.9260
2504.0000;6420.6840
2505.0000;6428.2500
2506.0000;6431.1410
2507.0000;6437.1640
2508.0000;6440.2920
2509.0000;6439.2080
2510.0000;6436.0840
2511.0000;6438.0700
2512.0000;6443.3780
2513.0000;6448.0700
2514.0000;6451.2530
2515.0000;6453.2930
2516.0000;6454.8340
2517.0000;6463.3060
2518.0000;6474.9230
2519.0000;6473.2290
2520.0000;6456.1640
2521.0000;6446.0060
2522.0000;6451.2250
2523.0000;6457.4180
2524.0000;6458.7090
2525.0000;6453.2840
2526.0000;6440.0450
2527.0000;6426.4100
2528.0000;6418.3850
2529.0000;6413.2870
2530.0000;6406.7750
2531.0000;6403.3170
2532.0000;6401.7220
2533.0000;6405.4460
2534.0000;6416.2420
2535.0000;6425.2430
2536.0000;6422.9480
2537.0000;6412.7190
2538.0000;6406.5480
2539.0000;6400.7930
2540.0000;6386.4300
2541.0000;6373.8370
2542.0000;6373.8610
2543.0000;6388.2850
2544.0000;6410.0840
2545.0000;6429.7750
2546.0000;6432.7570
2547.0000;6416.8940
2548.0000;6405.8070
2549.0000;6405.4980
2550.0000;6411.1640
2551.0000;6422.9950
2552.0000;6443.2170
2553.0000;6468.0200
2554.0000;6475.3130
2555.0000;6455.5780
2556.0000;6430.7660
2557.0000;6414.7060
2558.0000;6412.0980
2559.0000;6426.5670
2560.0000;6440.4130
2561.0000;6436.1970
2562.0000;6428.6960
2563.0000;6430.2780
2564.0000;6433.3000
2565.0000;6431.6710
2566.0000;6431.9090
2567.0000;6441.3430
2568.0000;6450.3100
2569.0000;6447.4630
2570.0000;6440.8180
2571.0000;6446.1240
2572.0000;6454.5150
2573.0000;6452.9070
2574.0000;6446.5240
2575.0000;6449.1830
2576.0000;6455.5350
2577.0000;6452.6050
2578.0000;6445.0300
2579.0000;6448.5820
2580.0000;6460.3600
2581.0000;6464.2170
2582.0000;6459.6910
2583.0000;6458.5480
2584.0000;6462.5440
2585.0000;6471.5110
2586.0000;6482.9540
2587.0000;6487.9440
2588.0000;6484.7310
2589.0000;6491.8940
2590.0000;6510.7250
2591.0000;6514.8780
2592.0000;6494.5330
2593.0000;6476.1620
2594.0000;6473.2900
2595.0000;6475.8810
2596.0000;6479.8080
2597.0000;6480.0760
2598.0000;6471.7450
2599.0000;6470.6030
2600.0000;6487.1760
2601.0000;6498.7530
2602.0000;6487.7960
2603.0000;6473.5010
2604.0000;6473.5850
2605.0000;6475.8090
2606.0000;6467.9680
2607.0000;6464.2130
2608.0000;6476.1580
2609.0000;6490.7880
2610.0000;6492.2870
2611.0000;6488.3370
2612.0000;6490.3820
2613.0000;6496.9360
2614.0000;6507.8160
2615.0000;6521.3450
2616.0000;6538.3310
2617.0000;6550.8220
2618.0000;6558.1760
2619.0000;6554.5200
2620.0000;6544.5810
2621.0000;6528.3370
2622.0000;6505.3650
2623.0000;6491.5340
2624.0000;6505.5770
2625.0000;6538.9140
2626.0000;6554.6470
2627.0000;6552.6340
2628.0000;6557.5300
2629.0000;6565.7740
2630.0000;6569.8260
2631.0000;6570.6950
2632.0000;6580.6750
2633.0000;6597.4890
2634.0000;6610.9580
2635.0000;6615.1000
2636.0000;6608.9610
2637.0000;6593.2630
2638.0000;6578.0130
2639.0000;6568.9660
2640.0000;6565.4070
2641.0000;6568.7090
2642.0000;6572.1860
2643.0000;6573.2380
2644.0000;6570.8770
2645.0000;6566.0220
2646.0000;6570.8400
2647.0000;6587.6460
2648.0000;6599.6180
2649.0000;6598.9480
2650.0000;6600.4280
2651.0000;6608.8960
2652.0000;6611.7680
2653.0000;6604.9670
2654.0000;6605.4170
2655.0000;6620.3170
2656.0000;6617.9170
2657.0000;6584.8030
2658.0000;6568.9890
2659.0000;6598.0370
2660.0000;6622.7460
2661.0000;6611.8250
2662.0000;6599.8250
2663.0000;6606.8920
2664.0000;6618.7290
2665.0000;6628.0150
2666.0000;6630.1230
2667.0000;6621.6270
2668.0000;6610.1360
2669.0000;6601.8690
2670.0000;6605.1730
2671.0000;6626.8670
2672.0000;6642.4010
2673.0000;6630.8600
2674.0000;6613.5350
2675.0000;6610.4510
2676.0000;6613.6820
2677.0000;6617.9000
2678.0000;6622.4240
2679.0000;6623.3850
2680.0000;6624.9930
2681.0000;6632.5520
2682.0000;6636.4240
2683.0000;6630.0930
2684.0000;6618.8930
2685.0000;6608.6210
2686.0000;6605.7960
2687.0000;6618.3580
2688.0000;6627.6830
2689.0000;6610.6460
2690.0000;6592.2420
2691.0000;6602.7570
2692.0000;6614.6250
2693.0000;6595.6200
2694.0000;6573.7290
2695.0000;6572.8380
2696.0000;6587.2160
2697.0000;6603.2010
2698.0000;6623.5420
2699.0000;6651.0710
2700.0000;6666.8680
2701.0000;6659.3530
2702.0000;6643.5370
2703.0000;6650.6180
2704.0000;6663.1100
2705.0000;6662.2480
2706.0000;6658.8870
2707.0000;6667.7980
2708.0000;6674.5660
2709.0000;6663.6990
2710.0000;6651.5180
2711.0000;6657.5920
2712.0000;6672.2540
2713.0000;6682.5410
2714.0000;6688.6730
2715.0000;6693.7610
2716.0000;6692.3010
2717.0000;6682.6360
2718.0000;6675.9700
2719.0000;6690.0060
2720.0000;6704.1270
2721.0000;6691.5350
2722.0000;6673.8950
2723.0000;6680.6490
2724.0000;6690.5460
2725.0000;6676.6940
2726.0000;6659.1850
2727.0000;6655.2940
2728.0000;6663.7760
2729.0000;6678.1660
2730.0000;6696.4370
2731.0000;6713.9440
2732.0000;6724.9620
2733.0000;6732.3460
2734.0000;6726.8240
2735.0000;6706.7900
2736.0000;6687.6240
2737.0000;6687.7180
2738.0000;6699.4840
2739.0000;6711.2710
2740.0000;6715.6280
2741.0000;6701.0920
2742.0000;6685.9660
2743.0000;6689.5000
2744.0000;6700.4540
2745.0000;6703.2000
2746.0000;6713.8170
2747.0000;6745.4620
2748.0000;6773.3140
2749.0000;6779.1680
2750.0000;6780.4000
2751.0000;6798.9050
2752.0000;6812.1330
2753.0000;6807.8680
2754.0000;6799.2800
2755.0000;6801.3220
2756.0000;6796.8470
2757.0000;6776.1430
2758.0000;6753.6030
2759.0000;6740.3230
2760.0000;6739.3630
2761.0000;6750.7610
2762.0000;6762.5170
2763.0000;6762.2170
2764.0000;6758.2660
2765.0000;6755.6650
2766.0000;6752.4100
2767.0000;6748.8310
2768.0000;6760.1420
2769.0000;6791.6140
2770.0000;6806.9860
2771.0000;6786.4720
2772.0000;6771.1720
2773.0000;6782.2840
2774.0000;6792.9430
2775.0000;6791.6820
2776.0000;6784.6630
2777.0000;6774.7580
2778.0000;6777.1530
2779.0000;6796.1060
2780.0000;6802.7910
2781.0000;6789.2770
2782.0000;6787.8800
2783.0000;6806.7600
2784.0000;6820.5950
2785.0000;6822.4660
2786.0000;6825.5740
2787.0000;6831.0990
2788.0000;6838.3580
2789.0000;6843.4570
2790.0000;6835.6960
2791.0000;6817.4990
2792.0000;6808.4100
2793.0000;6812.3820
2794.0000;6813.0820
2795.0000;6811.3330
2796.0000;6812.2760
2797.0000;6819.0790
2798.0000;6837.8090
2799.0000;6861.8170
2800.0000;6877.5540
2801.0000;6881.5990
2802.0000;6888.6210
2803.0000;6893.1700
2804.0000;6894.2860
2805.0000;6890.2100
2806.0000;6883.6650
2807.0000;6876.7350
2808.0000;6871.2380
2809.0000;6871.6520
2810.0000;6878.5400
2811.0000;6890.9050
2812.0000;6906.6590
2813.0000;6917.2960
2814.0000;6913.4970
2815.0000;6910.8680
2816.0000;6937.5520
2817.0000;6966.4060
2818.0000;6970.8690
2819.0000;6965.4690
2820.0000;6971.9220
2821.0000;6979.4740
2822.0000;6983.3070
2823.0000;6988.6410
2824.0000;7000.0430
2825.0000;7008.3270
2826.0000;7008.2250
2827.0000;7006.8560
2828.0000;7009.6330
2829.0000;7017.3780
2830.0000;7030.4110
2831.0000;7040.9330
2832.0000;7043.7020
2833.0000;7047.0810
2834.0000;7053.1190
2835.0000;7052.2370
2836.0000;7043.6890
2837.0000;7049.3060
2838.0000;7068.8280
2839.0000;7063.0860
2840.0000;7028.1810
2841.0000;7000.4440
2842.0000;6992.1230
2843.0000;6987.1200
2844.0000;6990.5790
2845.0000;7009.0450
2846.0000;7032.4950
2847.0000;7037.0600
2848.0000;7021.6950
2849.0000;7004.1170
2850.0000;6994.2280
2851.0000;7009.1110
2852.0000;7035.7800
2853.0000;7043.3440
2854.0000;7038.8110
2855.0000;7041.2860
2856.0000;7047.7000
2857.0000;7062.5950
2858.0000;7073.3490
2859.0000;7067.4030
2860.0000;7062.8630
2861.0000;7081.1860
2862.0000;7100.7560
2863.0000;7106.1360
2864.0000;7104.1970
2865.0000;7101.2710
2866.0000;7101.6720
2867.0000;7110.0450
2868.0000;7120.4530
2869.0000;7128.0060
2870.0000;7123.0910
2871.0000;7104.2840
2872.0000;7103.5390
2873.0000;7127.4080
2874.0000;7132.3800
2875.0000;7111.4030
2876.0000;7101.1120
2877.0000;7107.4190
2878.0000;7113.1900
2879.0000;7117.9050
2880.0000;7127.2370
2881.0000;7137.3180
2882.0000;7142.7680
2883.0000;7143.0420
2884.0000;7144.8750
2885.0000;7148.5420
2886.0000;7158.5390
2887.0000;7167.7970
2888.0000;7166.1040
2889.0000;7164.7470
2890.0000;7181.8790
2891.0000;7199.8110
2892.0000;7202.1260
2893.0000;7203.2080
2894.0000;7218.6290
2895.0000;7222.8380
2896.0000;7201.5130
2897.0000;7192.4620
2898.0000;7216.1920
2899.0000;7248.2590
2900.0000;7274.9100
2901.0000;7286.3840
2902.0000;7277.6090
2903.0000;7273.7150
2904.0000;7279.8180
2905.0000;7282.8290
2906.0000;7282.3280
2907.0000;7286.1450
2908.0000;7293.2310
2909.0000;7300.7520
2910.0000;7303.7520
2911.0000;7297.7320
2912.0000;7285.5650
2913.0000;7274.3010
2914.0000;7272.1980
2915.0000;7284.6820
2916.0000;7304.9730
2917.0000;7320.7910
2918.0000;7328.4750
2919.0000;7328.3600
2920.0000;7321.6990
2921.0000;7313.8730
2922.0000;7318.7250
2923.0000;7344.5900
2924.0000;7348.1020
2925.0000;7311.8680
2926.0000;7292.1500
2927.0000;7307.3310
2928.0000;7314.7750
2929.0000;7308.1330
2930.0000;7312.3430
2931.0000;7325.8570
2932.0000;7328.0360
2933.0000;7321.5010
2934.0000;7325.3500
2935.0000;7338.2570
2936.0000;7356.0460
2937.0000;7370.8440
2938.0000;7376.6310
2939.0000;7371.7990
2940.0000;7363.1700
2941.0000;7357.8430
2942.0000;7366.9010
2943.0000;7375.2430
2944.0000;7369.3330
2945.0000;7372.8190
2946.0000;7396.9070
2947.0000;7411.4420
2948.0000;7403.2790
2949.0000;7404.9630
2950.0000;7422.7630
2951.0000;7429.0260
2952.0000;7419.6040
2953.0000;7410.3010
2954.0000;7406.3850
2955.0000;7413.2090
2956.0000;7424.1480
2957.0000;7419.3930
2958.0000;7407.8550
2959.0000;7410.2050
2960.0000;7419.4880
2961.0000;7425.1520
2962.0000;7427.1650
2963.0000;7425.0220
2964.0000;7421.7070
2965.0000;7421.0160
2966.0000;7426.1040
2967.0000;7437.6090
2968.0000;7441.9120
2969.0000;7433.6290
2970.0000;7427.2180
2971.0000;7431.1900
2972.0000;7459.5710
2973.0000;7499.9420
2974.0000;7501.4680
2975.0000;7471.6580
2976.0000;7471.4420
2977.0000;7490.8470
2978.0000;7506.1450
2979.0000;7509.3220
2980.0000;7486.7180
2981.0000;7476.6330
2982.0000;7524.7200
2983.0000;7570.6120
2984.0000;7568.0040
2985.0000;7554.1170
2986.0000;7552.3840
2987.0000;7544.8730
2988.0000;7531.5480
2989.0000;7536.7110
2990.0000;7562.4990
2991.0000;7578.9030
2992.0000;7581.3720
2993.0000;7588.3720
2994.0000;7597.9620
2995.0000;7613.5920
2996.0000;7623.8950
2997.0000;7616.7740
2998.0000;7606.1590
2999.0000;7615.3440
3000.0000;7628.0070
3001.0000;7629.1530
3002.0000;7632.1800
3003.0000;7644.4100
3004.0000;7647.0950
3005.0000;7633.6530
3006.0000;7619.7650
3007.0000;7613.2800
3008.0000;7615.9800
3009.0000;7625.4040
3010.0000;7623.4780
3011.0000;7614.1970
3012.0000;7611.7500
3013.0000;7619.4980
3014.0000;7638.0780
3015.0000;7660.2750
3016.0000;7678.7280
3017.0000;7684.8960
3018.0000;7677.1650
3019.0000;7667.6790
3020.0000;7668.1310
3021.0000;7670.5950
3022.0000;7672.3840
3023.0000;7671.5160
3024.0000;7669.0130
3025.0000;7674.0150
3026.0000;7683.8670
3027.0000;7685.8120
3028.0000;7682.4820
3029.0000;7686.4720
3030.0000;7693.2980
3031.0000;7696.4930
3032.0000;7701.9770
3033.0000;7715.9320
3034.0000;7731.8990
3035.0000;7745.9430
3036.0000;7748.5250
3037.0000;7736.8750
3038.0000;7730.5230
3039.0000;7735.3290
3040.0000;7737.6770
3041.0000;7737.8100
3042.0000;7746.9650
3043.0000;7755.1820
3044.0000;7739.7810
3045.0000;7718.1720
3046.0000;7720.0350
3047.0000;7733.7250
3048.0000;7745.0820
3049.0000;7746.2330
3050.0000;7730.8760
3051.0000;7718.1420
3052.0000;7718.3360
3053.0000;7719.9070
3054.0000;7723.2970
3055.0000;7742.3220
3056.0000;7768.9690
3057.0000;7782.0830
3058.0000;7780.0540
3059.0000;7782.1680
3060.0000;7783.8280
3061.0000;7785.7140
3062.0000;7788.9400
3063.0000;7794.8970
3064.0000;7801.2650
3065.0000;7805.9480
3066.0000;7808.5770
3067.0000;7808.2170
3068.0000;7803.3740
3069.0000;7797.9780
3070.0000;7807.9330
3071.0000;7825.4160
3072.0000;7826.7980
3073.0000;7818.9000
3074.0000;7821.1950
3075.0000;7828.0080
3076.0000;7833.8650
3077.0000;7846.9100
3078.0000;7870.9700
3079.0000;7884.7820
3080.0000;7878.6560
3081.0000;7869.1400
3082.0000;7865.3140
3083.0000;7885.6830
3084.0000;7918.0030
3085.0000;7921.4410
3086.0000;7907.1530
3087.0000;7914.1110
3088.0000;7923.2210
3089.0000;7916.0850
3090.0000;7917.3890
3091.0000;7942.6220
3092.0000;7960.2300
3093.0000;7957.0050
3094.0000;7965.5480
3095.0000;7987.0190
3096.0000;7999.0140
3097.0000;8001.9000
3098.0000;8020.3450
3099.0000;8042.7570
3100.0000;8058.1530
3101.0000;8063.3160
3102.0000;8064.6970
3103.0000;8059.6630
3104.0000;8051.8760
3105.0000;8055.4240
3106.0000;8073.8840
3107.0000;8082.4870
3108.0000;8076.0090
3109.0000;8069.2280
3110.0000;8070.2690
3111.0000;8096.1310
3112.0000;8122.6670
3113.0000;8117.0270
3114.0000;8096.1620
3115.0000;8082.4960
3116.0000;8078.1490
3117.0000;8086.6100
3118.0000;8096.0730
3119.0000;8099.5460
3120.0000;8092.6040
3121.0000;8079.6140
3122.0000;8079.2190
3123.0000;8090.0450
3124.0000;8103.1940
3125.0000;8111.9170
3126.0000;8109.5270
3127.0000;8099.0390
3128.0000;8086.2960
3129.0000;8078.5710
3130.0000;8079.7910
3131.0000;8073.3330
3132.0000;8061.4120
3133.0000;8063.0640
3134.0000;8072.8070
3135.0000;8066.6370
3136.0000;8062.4550
3137.0000;8084.0440
3138.0000;8102.5630
3139.0000;8096.6090
3140.0000;8100.4960
3141.0000;8125.7950
3142.0000;8138.3360
3143.0000;8131.5400
3144.0000;8131.5680
3145.0000;8140.1110
3146.0000;8157.8280
3147.0000;8174.2900
3148.0000;8181.1730
3149.0000;8175.5740
3150.0000;8160.6020
3151.0000;8162.9000
3152.0000;8191.7630
3153.0000;8193.7920
3154.0000;8162.8620
3155.0000;8147.8620
3156.0000;8152.8090
3157.0000;8158.9520
3158.0000;8171.8920
3159.0000;8191.7150
3160.0000;8212.3440
3161.0000;8228.1090
3162.0000;8226.4810
3163.0000;8206.5910
3164.0000;8204.9950
3165.0000;8221.4220
3166.0000;8207.4270
3167.0000;8183.5080
3168.0000;8205.6100
3169.0000;8242.7590
3170.0000;8253.2050
3171.0000;8253.0070
3172.0000;8254.9680
3173.0000;8248.9300
3174.0000;8236.6380
3175.0000;8236.1780
3176.0000;8250.9840
3177.0000;8271.3020
3178.0000;8288.2010
3179.0000;8293.5310
3180.0000;8290.5830
3181.0000;8289.9370
3182.0000;8299.1420
3183.0000;8322.4350
3184.0000;8344.2600
3185.0000;8356.6650
3186.0000;8372.8290
3187.0000;8384.7220
3188.0000;8385.7680
3189.0000;8377.3560
3190.0000;8369.8700
3191.0000;8373.0630
3192.0000;8394.3410
3193.0000;8412.6550
3194.0000;8417.3860
3195.0000;8431.7530
3196.0000;8451.4330
3197.0000;8456.6930
3198.0000;8450.9890
3199.0000;8457.3810
3200.0000;8465.6480
3201.0000;8468.5270
3202.0000;8465.1050
3203.0000;8456.6540
3204.0000;8457.3920
3205.0000;8468.7610
3206.0000;8472.2780
3207.0000;8466.1430
3208.0000;8454.9320
3209.0000;8450.7480
3210.0000;8470.1310
3211.0000;8480.6030
3212.0000;8459.1360
3213.0000;8446.2150
3214.0000;8455.8500
3215.0000;8466.2910
3216.0000;8473.3020
3217.0000;8478.2160
3218.0000;8480.4730
3219.0000;8483.0550
3220.0000;8491.3930
3221.0000;8510.6560
3222.0000;8512.2890
3223.0000;8490.4920
3224.0000;8495.8580
3225.0000;8523.9190
3226.0000;8525.1930
3227.0000;8510.9320
3228.0000;8514.3710
3229.0000;8517.0160
3230.0000;8506.2040
3231.0000;8502.1760
3232.0000;8512.5280
3233.0000;8524.3040
3234.0000;8532.6460
3235.0000;8538.0490
3236.0000;8535.5790
3237.0000;8523.4640
3238.0000;8515.1710
3239.0000;8524.1670
3240.0000;8534.1600
3241.0000;8537.1980
3242.0000;8550.5060
3243.0000;8568.7020
3244.0000;8571.2180
3245.0000;8564.6860
3246.0000;8569.2230
3247.0000;8587.7790
3248.0000;8623.5140
3249.0000;8637.1540
3250.0000;8613.8430
3251.0000;8594.2690
3252.0000;8587.1690
3253.0000;8575.1460
3254.0000;8574.8100
3255.0000;8601.9790
3256.0000;8628.9660
3257.0000;8629.3290
3258.0000;8638.0460
3259.0000;8663.4550
3260.0000;8679.4250
3261.0000;8679.7800
3262.0000;8676.8410
3263.0000;8675.4850
3264.0000;8688.7170
3265.0000;8698.7110
3266.0000;8694.0420
3267.0000;8688.3460
3268.0000;8688.0620
3269.0000;8696.5700
3270.0000;8713.5220
3271.0000;8738.4200
3272.0000;8751.6030
3273.0000;8735.9440
3274.0000;8731.6510
3275.0000;8760.4210
3276.0000;8773.8960
3277.0000;8761.2300
3278.0000;8744.3350
3279.0000;8734.8000
3280.0000;8745.7900
3281.0000;8771.5240
3282.0000;8798.5420
3283.0000;8826.4100
3284.0000;8847.2690
3285.0000;8852.4330
3286.0000;8837.3900
3287.0000;8813.9020
3288.0000;8794.5650
3289.0000;8795.6280
3290.0000;8801.8130
3291.0000;8799.3300
3292.0000;8796.6350
3293.0000;8792.7120
3294.0000;8774.3050
3295.0000;8755.2730
3296.0000;8756.1880
3297.0000;8770.3780
3298.0000;8783.6860
3299.0000;8789.9350
3300.0000;8785.3030
3301.0000;8780.1920
3302.0000;8781.2610
3303.0000;8798.5140
3304.0000;8818.9370
3305.0000;8822.9480
3306.0000;8821.3510
3307.0000;8822.8880
3308.0000;8827.8130
3309.0000;8833.8510
3310.0000;8828.8240
3311.0000;8822.4000
3312.0000;8836.5900
3313.0000;8853.4830
3314.0000;8857.2240
3315.0000;8858.3630
3316.0000;8858.4330
3317.0000;8845.3450
3318.0000;8829.3160
3319.0000;8836.6960
3320.0000;8853.5430
3321.0000;8856.6820
3322.0000;8863.5980
3323.0000;8878.0750
3324.0000;8873.6640
3325.0000;8855.6520
3326.0000;8862.5880
3327.0000;8883.0920
3328.0000;8891.9760
3329.0000;8904.9840
3330.0000;8928.2390
3331.0000;8933.5090
3332.0000;8919.0780
3333.0000;8917.2590
3334.0000;8932.0680
3335.0000;8964.0160
3336.0000;8984.5570
3337.0000;8973.4530
3338.0000;8970.0550
3339.0000;8986.4660
3340.0000;9005.3980
3341.0000;9019.9990
3342.0000;9029.6590
3343.0000;9033.0160
3344.0000;9035.6630
3345.0000;9049.7410
3346.0000;9072.6930
3347.0000;9068.8030
3348.0000;9049.6510
3349.0000;9064.4550
3350.0000;9089.8370
3351.0000;9099.2440
3352.0000;9112.8540
3353.0000;9132.3730
3354.0000;9134.9760
3355.0000;9121.9600
3356.0000;9116.3400
3357.0000;9121.7440
3358.0000;9140.5110
3359.0000;9155.0410
3360.0000;9156.8550
3361.0000;9172.3430
3362.0000;9195.3270
3363.0000;9205.6280
3364.0000;9211.8280
3365.0000;9232.8880
3366.0000;9236.8540
3367.0000;9215.4680
3368.0000;9198.5530
3369.0000;9201.5820
3370.0000;9239.8500
3371.0000;9273.5560
3372.0000;9253.3570
3373.0000;9236.2580
3374.0000;9249.7100
3375.0000;9266.3870
3376.0000;9278.8410
3377.0000;9280.3290
3378.0000;9285.6990
3379.0000;9315.0460
3380.0000;9333.6760
3381.0000;9325.0300
3382.0000;9310.4880
3383.0000;9297.1480
3384.0000;9292.5330
3385.0000;9297.4980
3386.0000;9307.2940
3387.0000;9305.8530
3388.0000;9291.6520
3389.0000;9305.3690
3390.0000;9332.5650
3391.0000;9327.5640
3392.0000;9314.1190
3393.0000;9318.3910
3394.0000;9322.4830
3395.0000;9321.9700
3396.0000;9320.7050
3397.0000;9325.3650
3398.0000;9348.7020
3399.0000;9366.9410
3400.0000;9361.1410
3401.0000;9348.0780
3402.0000;9337.2420
3403.0000;9333.2140
3404.0000;9340.2730
3405.0000;9356.1240
3406.0000;9365.5640
3407.0000;9358.8540
3408.0000;9379.8080
3409.0000;9422.3190
3410.0000;9439.8250
3411.0000;9424.4410
3412.0000;9384.9000
3413.0000;9367.1080
3414.0000;9396.6900
3415.0000;9431.3990
3416.0000;9450.8980
3417.0000;9442.4290
3418.0000;9427.2920
3419.0000;9437.8130
3420.0000;9454.9150
3421.0000;9471.3150
3422.0000;9500.6420
3423.0000;9526.9530
3424.0000;9536.2980
3425.0000;9523.2020
3426.0000;9496.4730
3427.0000;9480.8190
3428.0000;9486.0280
3429.0000;9488.5950
3430.0000;9497.7080
3431.0000;9521.2830
3432.0000;9549.2860
3433.0000;9570.8040
3434.0000;9580.2330
3435.0000;9578.9130
3436.0000;9591.2860
3437.0000;9608.6540
3438.0000;9624.8290
3439.0000;9628.0560
3440.0000;9615.1540
3441.0000;9600.9370
3442.0000;9592.2520
3443.0000;9593.0500
3444.0000;9598.1810
3445.0000;9600.6040
3446.0000;9616.3800
3447.0000;9638.1500
3448.0000;9640.2220
3449.0000;9636.0680
3450.0000;9650.8500
3451.0000;9662.2360
3452.0000;9658.7410
3453.0000;9640.6370
3454.0000;9618.9000
3455.0000;9612.3040
3456.0000;9621.7090
3457.0000;9639.3940
3458.0000;9649.6920
3459.0000;9647.8860
3460.0000;9647.8990
3461.0000;9659.1680
3462.0000;9694.2220
3463.0000;9718.3740
3464.0000;9715.2560
3465.0000;9709.2430
3466.0000;9708.5000
3467.0000;9729.1340
3468.0000;9740.1990
3469.0000;9721.1440
3470.0000;9714.6740
3471.0000;9726.5100
3472.0000;9727.9400
3473.0000;9729.5460
3474.0000;9744.9550
3475.0000;9757.6090
3476.0000;9759.7750
3477.0000;9759.9300
3478.0000;9757.9680
3479.0000;9756.9900
3480.0000;9753.6290
3481.0000;9747.4660
3482.0000;9747.5710
3483.0000;9756.3650
3484.0000;9771.0320
3485.0000;9785.3370
3486.0000;9793.9000
3487.0000;9793.9890
3488.0000;9786.0730
3489.0000;9773.8000
3490.0000;9771.6990
3491.0000;9795.9420
3492.0000;9821.6410
3493.0000;9832.0830
3494.0000;9843.2960
3495.0000;9847.7000
3496.0000;9837.0110
3497.0000;9826.2210
3498.0000;9830.6380
3499.0000;9852.2510
3500.0000;9882.5480
3501.0000;9901.5410
3502.0000;9908.8840
3503.0000;9915.2900
3504.0000;9904.9290
3505.0000;9880.9550
3506.0000;9869.1280
3507.0000;9875.8240
3508.0000;9895.5390
3509.0000;9910.7400
3510.0000;9908.2640
3511.0000;9899.5090
3512.0000;9893.4660
3513.0000;9907.9440
3514.0000;9915.4070
3515.0000;9898.2430
3516.0000;9895.4270
3517.0000;9909.8940
3518.0000;9919.7320
3519.0000;9917.7690
3520.0000;9901.0760
3521.0000;9913.5650
3522.0000;9959.1610
3523.0000;10000.4500
3524.0000;10022.4300
3525.0000;10022.0700
3526.0000;10020.3200
3527.0000;10025.8900
3528.0000;10018.9300
3529.0000;10012.7500
3530.0000;10033.0600
3531.0000;10031.3400
3532.0000;9993.5960
3533.0000;9981.0220
3534.0000;9992.9880
3535.0000;9994.5220
3536.0000;9995.0540
3537.0000;9996.9060
3538.0000;10003.0200
3539.0000;10017.9000
3540.0000;10051.1700
3541.0000;10077.9700
3542.0000;10079.6100
3543.0000;10056.1900
3544.0000;10025.6100
3545.0000;10038.9000
3546.0000;10049.3700
3547.0000;10013.1100
3548.0000;9988.5880
3549.0000;9989.4870
3550.0000;9979.5350
3551.0000;9977.8370
3552.0000;9995.4960
3553.0000;10007.2300
3554.0000;10008.0700
3555.0000;10027.7800
3556.0000;10037.7700
3557.0000;10008.4600
3558.0000;9990.3120
3559.0000;10001.6800
3560.0000;10013.7700
3561.0000;10028.3500
3562.0000;10047.0000
3563.0000;10060.2200
3564.0000;10063.2300
3565.0000;10065.9000
3566.0000;10065.6300
3567.0000;10062.6600
3568.0000;10064.3200
3569.0000;10072.2100
3570.0000;10074.4200
3571.0000;10072.8100
3572.0000;10074.8400
3573.0000;10076.1700
3574.0000;10075.8100
3575.0000;10075.7300
3576.0000;10084.6400
3577.0000;10116.2600
3578.0000;10122.2400
3579.0000;10088.1800
3580.0000;10080.8500
3581.0000;10093.5600
3582.0000;10094.4000
3583.0000;10087.4100
3584.0000;10075.2000
3585.0000;10065.2800
3586.0000;10071.2200
3587.0000;10104.4800
3588.0000;10136.6600
3589.0000;10142.9700
3590.0000;10121.7000
3591.0000;10098.7200
3592.0000;10121.8400
3593.0000;10152.4200
3594.0000;10167.6000
3595.0000;10187.0600
3596.0000;10207.7600
3597.0000;10234.4000
3598.0000;10248.3100
3599.0000;10246.1300
3600.0000;10258.7700
3601.0000;10267.9400
3602.0000;10245.6200
3603.0000;10238.5400
3604.0000;10264.9200
3605.0000;10296.6900
3606.0000;10322.3700
3607.0000;10334.0500
3608.0000;10329.5900
3609.0000;10319.5100
3610.0000;10345.3400
3611.0000;10378.8600
3612.0000;10377.5400
3613.0000;10372.3900
3614.0000;10374.9800
3615.0000;10385.7900
3616.0000;10389.4200
3617.0000;10372.1300
3618.0000;10362.6700
3619.0000;10373.1700
3620.0000;10397.7600
3621.0000;10420.1200
3622.0000;10424.1400
3623.0000;10446.4900
3624.0000;10469.7300
3625.0000;10427.0900
3626.0000;10375.9200
3627.0000;10372.3200
3628.0000;10391.5500
3629.0000;10414.7000
3630.0000;10395.2900
3631.0000;10394.8300
3632.0000;10446.2400
3633.0000;10460.4000
3634.0000;10446.6600
3635.0000;10473.8600
3636.0000;10490.8700
3637.0000;10477.3000
3638.0000;10479.2900
3639.0000;10481.5600
3640.0000;10452.1800
3641.0000;10432.0500
3642.0000;10436.2700
3643.0000;10424.2800
3644.0000;10422.3200
3645.0000;10459.3200
3646.0000;10467.9600
3647.0000;10443.8100
3648.0000;10475.2800
3649.0000;10511.8300
3650.0000;10499.2800
3651.0000;10497.4200
3652.0000;10509.0900
3653.0000;10499.5600
3654.0000;10483.9600
3655.0000;10475.0700
3656.0000;10444.4800
3657.0000;10416.1100
3658.0000;10434.3200
3659.0000;10458.7500
3660.0000;10460.2100
3661.0000;10465.5800
3662.0000;10456.9500
3663.0000;10410.1800
3664.0000;10407.3500
3665.0000;10462.8900
3666.0000;10486.5400
3667.0000;10491.5000
3668.0000;10503.7500
3669.0000;10525.0400
3670.0000;10539.7600
3671.0000;10509.9300
3672.0000;10479.0000
3673.0000;10485.8200
3674.0000;10492.6500
3675.0000;10494.8000
3676.0000;10494.2900
3677.0000;10493.0500
3678.0000;10495.5300
3679.0000;10512.6400
3680.0000;10538.1200
3681.0000;10558.9800
3682.0000;10572.4900
3683.0000;10572.6300
3684.0000;10557.6600
3685.0000;10548.4800
3686.0000;10565.7300
3687.0000;10587.8200
3688.0000;10601.7900
3689.0000;10602.2400
3690.0000;10599.8600
3691.0000;10605.4600
3692.0000;10619.4600
3693.0000;10625.6900
3694.0000;10605.3200
3695.0000;10591.1300
3696.0000;10591.3600
3697.0000;10565.0400
3698.0000;10563.7800
3699.0000;10620.5300
3700.0000;10663.3200
3701.0000;10675.6600
3702.0000;10689.6600
3703.0000;10709.1000
3704.0000;10734.1600
3705.0000;10736.3400
3706.0000;10714.1900
3707.0000;10684.0800
3708.0000;10695.8900
3709.0000;10744.0600
3710.0000;10748.9000
3711.0000;10747.1100
3712.0000;10770.4900
3713.0000;10774.8000
3714.0000;10762.7700
3715.0000;10760.1900
3716.0000;10771.4200
3717.0000;10790.4700
3718.0000;10781.3800
3719.0000;10767.3700
3720.0000;10779.5700
3721.0000;10775.8900
3722.0000;10758.0100
3723.0000;10756.1300
3724.0000;10761.0100
3725.0000;10766.2500
3726.0000;10778.0500
3727.0000;10789.9800
3728.0000;10794.3600
3729.0000;10808.8600
3730.0000;10818.4400
3731.0000;10762.9700
3732.0000;10735.1200
3733.0000;10792.7400
3734.0000;10786.3400
3735.0000;10735.7100
3736.0000;10722.0800
3737.0000;10714.5900
3738.0000;10708.5500
3739.0000;10711.7700
3740.0000;10716.6500
3741.0000;10715.4700
3742.0000;10743.8500
3743.0000;10779.7400
3744.0000;10776.3800
3745.0000;10785.2200
3746.0000;10816.0300
3747.0000;10817.5400
3748.0000;10799.5800
3749.0000;10784.8100
3750.0000;10765.7600
3751.0000;10764.1800
3752.0000;10811.0700
3753.0000;10829.1500
3754.0000;10792.1200
3755.0000;10781.1000
3756.0000;10792.6100
3757.0000;10813.2600
3758.0000;10832.8200
3759.0000;10841.5200
3760.0000;10835.9400
3761.0000;10846.4800
3762.0000;10880.1200
3763.0000;10901.1800
3764.0000;10916.7200
3765.0000;10938.5800
3766.0000;10949.8900
3767.0000;10943.0300
3768.0000;10922.3200
3769.0000;10930.9800
3770.0000;10973.3500
3771.0000;10977.8400
3772.0000;10974.5800
3773.0000;10996.3500
3774.0000;11016.5900
3775.0000;11032.9500
3776.0000;11057.2500
3777.0000;11067.4200
3778.0000;11061.2000
3779.0000;11071.9400
3780.0000;11067.9300
3781.0000;11036.0600
3782.0000;11040.5500
3783.0000;11064.1700
3784.0000;11056.6800
3785.0000;11053.8100
3786.0000;11062.2800
3787.0000;11064.9300
3788.0000;11077.5900
3789.0000;11101.0600
3790.0000;11095.1100
3791.0000;11085.7900
3792.0000;11112.9100
3793.0000;11131.8600
3794.0000;11130.2900
3795.0000;11120.8500
3796.0000;11114.3800
3797.0000;11116.9800
3798.0000;11106.1900
3799.0000;11106.3500
3800.0000;11132.8200
3801.0000;11121.7700
3802.0000;11089.9000
3803.0000;11091.9400
3804.0000;11104.1300
3805.0000;11112.8900
3806.0000;11109.2300
3807.0000;11105.9200
3808.0000;11113.7800
3809.0000;11128.9300
3810.0000;11139.9800
3811.0000;11135.4700
3812.0000;11116.2800
3813.0000;11088.1000
3814.0000;11058.3300
3815.0000;11044.2900
3816.0000;11045.7100
3817.0000;11026.5700
3818.0000;10995.4200
3819.0000;10968.3600
3820.0000;10998.2700
3821.0000;11049.2900
3822.0000;11047.2300
3823.0000;11039.0600
3824.0000;11036.6900
3825.0000;11035.8100
3826.0000;11047.0600
3827.0000;11067.9500
3828.0000;11078.7400
3829.0000;11064.0100
3830.0000;11026.8800
3831.0000;11029.3700
3832.0000;11060.6600
3833.0000;11077.1800
3834.0000;11080.8100
3835.0000;11063.4900
3836.0000;11015.9700
3837.0000;11004.5400
3838.0000;11042.9400
3839.0000;11021.4900
3840.0000;11006.3900
3841.0000;11051.5300
3842.0000;11092.1500
3843.0000;11104.4100
3844.0000;11084.2500
3845.0000;11058.7100
3846.0000;11047.9500
3847.0000;11058.5000
3848.0000;11071.7000
3849.0000;11083.8100
3850.0000;11133.4900
3851.0000;11182.1700
3852.0000;11195.1300
3853.0000;11170.9500
3854.0000;11153.0400
3855.0000;11194.2200
3856.0000;11205.5300
3857.0000;11189.4100
3858.0000;11196.1800
3859.0000;11207.6300
3860.0000;11216.1000
3861.0000;11216.9700
3862.0000;11229.6100
3863.0000;11256.7100
3864.0000;11261.2400
3865.0000;11253.7400
3866.0000;11251.2900
3867.0000;11246.5200
3868.0000;11247.8100
3869.0000;11262.4400
3870.0000;11261.1300
3871.0000;11246.0300
3872.0000;11242.0000
3873.0000;11237.3600
3874.0000;11237.6100
3875.0000;11271.7000
3876.0000;11274.7700
3877.0000;11230.4600
3878.0000;11244.1300
3879.0000;11268.6500
3880.0000;11255.4400
3881.0000;11252.7400
3882.0000;11263.0200
3883.0000;11279.3500
3884.0000;11276.7200
3885.0000;11263.2100
3886.0000;11272.1000
3887.0000;11261.4100
3888.0000;11231.8200
3889.0000;11221.5600
3890.0000;11216.6000
3891.0000;11211.4400
3892.0000;11215.0100
3893.0000;11221.2900
3894.0000;11225.0000
3895.0000;11242.6300
3896.0000;11259.5700
3897.0000;11258.7400
3898.0000;11221.0000
3899.0000;11174.3600
3900.0000;11164.5800
3901.0000;11170.1200
3902.0000;11182.9000
3903.0000;11191.5500
3904.0000;11183.0000
3905.0000;11161.8800
3906.0000;11152.3600
3907.0000;11169.3000
3908.0000;11210.7400
3909.0000;11260.4100
3910.0000;11279.4900
3911.0000;11253.9700
3912.0000;11235.4400
3913.0000;11238.6700
3914.0000;11267.9600
3915.0000;11284.2200
3916.0000;11290.4700
3917.0000;11303.7500
3918.0000;11300.9100
3919.0000;11294.5900
3920.0000;11314.7300
3921.0000;11323.6500
3922.0000;11321.6800
3923.0000;11338.5100
3924.0000;11351.6200
3925.0000;11352.1100
3926.0000;11348.3700
3927.0000;11345.4900
3928.0000;11349.5500
3929.0000;11360.6200
3930.0000;11371.5600
3931.0000;11375.1000
3932.0000;11369.4700
3933.0000;11374.3700
3934.0000;11397.8400
3935.0000;11383.0000
3936.0000;11357.2000
3937.0000;11359.7000
3938.0000;11361.3100
3939.0000;11370.9700
3940.0000;11396.0000
3941.0000;11403.3300
3942.0000;11401.9600
3943.0000;11422.6400
3944.0000;11433.6200
3945.0000;11432.6800
3946.0000;11437.5300
3947.0000;11429.5200
3948.0000;11414.5100
3949.0000;11415.7200
3950.0000;11433.0900
3951.0000;11448.4300
3952.0000;11422.5400
3953.0000;11398.7300
3954.0000;11401.2000
3955.0000;11404.8900
3956.0000;11413.4500
3957.0000;11416.7100
3958.0000;11389.5200
3959.0000;11368.7800
3960.0000;11374.2900
3961.0000;11342.6700
3962.0000;11309.1100
3963.0000;11301.0800
3964.0000;11286.3600
3965.0000;11273.9400
3966.0000;11268.6300
3967.0000;11262.0000
3968.0000;11249.4100
3969.0000;11230.0100
3970.0000;11232.7900
3971.0000;11246.7100
3972.0000;11246.4800
3973.0000;11238.7300
3974.0000;11234.2500
3975.0000;11244.8500
3976.0000;11236.0200
3977.0000;11232.8000
3978.0000;11276.9300
3979.0000;11294.0800
3980.0000;11283.7000
3981.0000;11289.7200
3982.0000;11280.1900
3983.0000;11259.2100
3984.0000;11249.3900
3985.0000;11239.4300
3986.0000;11232.9000
3987.0000;11236.6200
3988.0000;11224.9800
3989.0000;11203.0900
3990.0000;11200.6300
3991.0000;11215.0100
3992.0000;11235.8400
3993.0000;11242.4300
3994.0000;11255.6400
3995.0000;11281.0600
3996.0000;11313.6200
3997.0000;11341.6800
3998.0000;11349.7800
3999.0000;11330.6200
4000.0000;11317.6300
4001.0000;11331.6700
4002.0000;11366.7000
4003.0000;11375.4100
4004.0000;11353.3000
4005.0000;11367.0300
4006.0000;11367.5100
4007.0000;11356.5800
4008.0000;11403.1200
4009.0000;11422.5700
4010.0000;11394.2000
4011.0000;11392.2800
4012.0000;11384.9700
4013.0000;11373.4500
4014.0000;11391.3400
4015.0000;11398.8200
4016.0000;11387.8000
4017.0000;11403.4600
4018.0000;11412.5300
4019.0000;11401.6400
4020.0000;11384.4800
4021.0000;11390.2900
4022.0000;11414.8000
4023.0000;11406.3600
4024.0000;11408.5800
4025.0000;11421.9400
4026.0000;11391.8000
4027.0000;11379.6000
4028.0000;11393.2100
4029.0000;11371.1300
4030.0000;11360.6700
4031.0000;11370.5100
4032.0000;11368.6200
4033.0000;11368.4100
4034.0000;11365.1400
4035.0000;11340.4200
4036.0000;11341.4400
4037.0000;11356.2700
4038.0000;11318.5800
4039.0000;11305.1200
4040.0000;11317.9600
4041.0000;11297.8200
4042.0000;11264.5600
4043.0000;11251.4700
4044.0000;11294.1300
4045.0000;11321.8200
4046.0000;11330.9200
4047.0000;11364.4900
4048.0000;11382.1000
4049.0000;11379.3600
4050.0000;11375.1400
4051.0000;11386.6000
4052.0000;11385.2900
4053.0000;11335.5600
4054.0000;11321.6900
4055.0000;11353.7500
4056.0000;11397.8500
4057.0000;11404.7200
4058.0000;11384.3200
4059.0000;11375.3200
4060.0000;11386.4000
4061.0000;11408.5200
4062.0000;11427.0100
4063.0000;11465.8400
4064.0000;11487.3300
4065.0000;11465.0400
4066.0000;11431.6300
4067.0000;11415.1100
4068.0000;11430.4800
4069.0000;11441.1100
4070.0000;11446.9900
4071.0000;11451.5600
4072.0000;11478.7000
4073.0000;11475.1900
4074.0000;11439.8000
4075.0000;11454.3700
4076.0000;11461.0200
4077.0000;11441.6900
4078.0000;11431.3500
4079.0000;11401.5900
4080.0000;11363.5400
4081.0000;11351.5900
4082.0000;11341.3200
4083.0000;11326.1600
4084.0000;11306.6600
4085.0000;11289.4100
4086.0000;11278.0900
4087.0000;11269.3000
4088.0000;11253.0600
4089.0000;11225.1000
4090.0000;11190.9000
4091.0000;11194.8600
4092.0000;11210.3600
4093.0000;11200.8700
4094.0000;11186.4600
4095.0000;11205.8900
4096.0000;11260.4000
4097.0000;11256.9700
4098.0000;11235.5100
4099.0000;11236.0300
4100.0000;11265.7500
4101.0000;11264.3000
4102.0000;11222.4100
4103.0000;11200.8700
4104.0000;11189.3800
4105.0000;11170.9900
4106.0000;11117.8800
4107.0000;11064.2400
4108.0000;11023.2400
4109.0000;10986.9600
4110.0000;10926.6000
4111.0000;10846.4600
4112.0000;10766.4300
4113.0000;10701.2400
4114.0000;10634.9700
4115.0000;10545.6500
4116.0000;10420.3700
4117.0000;10325.2800
4118.0000;10280.0000
4119.0000;10197.3100
4120.0000;10090.8000
4121.0000;9980.5890
4122.0000;9897.0030
4123.0000;9784.7060
4124.0000;9660.3060
4125.0000;9567.7580
4126.0000;9461.6990
4127.0000;9354.9850
4128.0000;9256.0020
4129.0000;9111.4360
4130.0000;8944.3830
4131.0000;8791.8410
4132.0000;8679.0680
4133.0000;8590.9950
4134.0000;8485.8700
4135.0000;8333.0980
4136.0000;8166.4830
4137.0000;8020.6510
4138.0000;7893.6020
4139.0000;7742.5350
4140.0000;7592.0760
4141.0000;7482.8940
4142.0000;7342.4920
4143.0000;7199.2030
4144.0000;7085.9720
4145.0000;6964.9670
4146.0000;6860.3280
4147.0000;6777.2560
4148.0000;6684.9130
4149.0000;6585.3250
4150.0000;6488.9140
4151.0000;6414.0810
4152.0000;6334.0410
4153.0000;6257.8720
4154.0000;6207.6020
4155.0000;6132.6470
4156.0000;6049.0960
4157.0000;5991.0610
4158.0000;5949.4210
4159.0000;5870.3870
4160.0000;5733.9930
4161.0000;5674.2120
4162.0000;5631.6230
4163.0000;5569.2900
4164.0000;5520.5710
4165.0000;5477.8360
4166.0000;5439.3090
4167.0000;5397.3540
4168.0000;5370.6700
4169.0000;5359.5060
4170.0000;5350.5720
4171.0000;5339.1250
4172.0000;5333.9310
4173.0000;5335.5280
4174.0000;5326.3920
4175.0000;5318.1300
4176.0000;5309.3330
4177.0000;5283.1260
4178.0000;5262.1070
4179.0000;5244.7820
4180.0000;5216.2490
4181.0000;5191.8140
4182.0000;5179.3600
4183.0000;5176.5950
4184.0000;5172.6530
4185.0000;5159.0030
4186.0000;5139.8490
4187.0000;5136.0230
4188.0000;5152.1370
4189.0000;5172.8560
4190.0000;5175.1350
4191.0000;5201.6550
4192.0000;5218.2210
4193.0000;5197.4940
4194.0000;5217.3340
4195.0000;5230.9430
4196.0000;5209.3020
4197.0000;5175.6920
4198.0000;5146.5480
4199.0000;5134.3420
4200.0000;5133.6670
4201.0000;5138.6680
4202.0000;5129.8960
4203.0000;5104.5340
4204.0000;5124.6460
4205.0000;5144.6750
4206.0000;5137.5720
4207.0000;5130.4720
4208.0000;5150.3780
4209.0000;5181.4630
4210.0000;5184.5640
4211.0000;5182.5310
4212.0000;5180.3330
4213.0000;5181.7550
4214.0000;5184.7510
4215.0000;5166.6140
4216.0000;5134.9640
4217.0000;5128.1020
4218.0000;5114.6290
4219.0000;5097.6330
4220.0000;5093.7150
4221.0000;5113.8950
4222.0000;5151.1410
4223.0000;5177.3870
4224.0000;5157.8250
4225.0000;5114.3730
4226.0000;5090.5580
4227.0000;5116.8520
4228.0000;5113.8970
4229.0000;5095.1070
4230.0000;5092.7600
4231.0000;5095.1530
4232.0000;5109.6070
4233.0000;5124.5100
4234.0000;5117.2860
4235.0000;5090.6340
4236.0000;4574.6970
4237.0000;3261.3290
4238.0000;1731.1270
