Raman Shift ; Dark Subtracted #1
-2.0000;3677.5760
-1.0000;3372.4310
0.0000;2965.9630
1.0000;2478.6700
2.0000;1934.9830
3.0000;1406.0860
4.0000;974.8376
5.0000;607.8652
6.0000;353.5633
7.0000;261.0154
8.0000;198.9333
9.0000;169.2450
10.0000;196.5643
11.0000;192.5597
12.0000;122.6604
13.0000;49.2126
14.0000;-2.5344
15.0000;-14.8665
16.0000;0.4774
17.0000;14.0779
18.0000;12.3021
19.0000;9.3325
20.0000;6.1361
21.0000;2.8365
22.0000;0.8005
23.0000;1.0575
24.0000;4.7760
25.0000;10.0661
26.0000;14.3524
27.0000;15.2208
28.0000;13.8185
29.0000;12.1897
30.0000;12.4259
31.0000;12.7192
32.0000;12.1874
33.0000;9.4093
34.0000;6.1604
35.0000;4.2811
36.0000;5.4831
37.0000;8.6429
38.0000;11.8274
39.0000;12.9878
40.0000;12.7608
41.0000;12.0400
42.0000;12.0337
43.0000;11.9149
44.0000;11.4636
45.0000;11.0747
46.0000;10.1467
47.0000;7.9789
48.0000;2.4728
49.0000;-4.0094
50.0000;-8.0922
51.0000;-6.5553
52.0000;-0.1226
53.0000;6.6820
54.0000;9.3336
55.0000;8.5100
56.0000;6.4805
57.0000;5.2577
58.0000;4.5342
59.0000;5.0071
60.0000;7.8019
61.0000;12.4567
62.0000;17.0867
63.0000;19.3822
64.0000;19.4481
65.0000;20.3340
66.0000;25.1079
67.0000;32.9202
68.0000;42.2587
69.0000;52.0060
70.0000;61.0666
71.0000;70.6954
72.0000;84.6195
73.0000;99.7374
74.0000;112.6447
75.0000;122.3603
76.0000;125.8384
77.0000;128.2125
78.0000;137.2396
79.0000;150.8733
80.0000;165.2944
81.0000;178.7555
82.0000;189.0019
83.0000;199.2039
84.0000;214.3732
85.0000;232.2443
86.0000;250.7677
87.0000;272.1335
88.0000;292.6816
89.0000;311.1155
90.0000;329.3868
91.0000;344.0520
92.0000;356.4044
93.0000;373.3753
94.0000;392.2069
95.0000;410.8692
96.0000;431.5272
97.0000;451.1868
98.0000;468.1602
99.0000;486.4103
100.0000;503.0503
101.0000;516.4202
102.0000;533.1553
103.0000;550.6101
104.0000;565.3052
105.0000;578.2708
106.0000;586.9885
107.0000;592.7105
108.0000;602.1270
109.0000;613.6630
110.0000;624.6649
111.0000;636.2170
112.0000;646.7524
113.0000;655.2775
114.0000;665.1974
115.0000;675.0914
116.0000;684.1478
117.0000;694.5673
118.0000;705.2321
119.0000;714.7226
120.0000;724.8214
121.0000;734.2593
122.0000;740.7496
123.0000;745.0682
124.0000;745.9608
125.0000;744.3230
126.0000;744.0745
127.0000;745.4213
128.0000;747.2049
129.0000;749.5756
130.0000;752.3815
131.0000;754.3745
132.0000;754.0753
133.0000;750.9403
134.0000;747.9763
135.0000;749.5665
136.0000;756.5720
137.0000;763.8842
138.0000;765.3702
139.0000;759.2606
140.0000;751.8897
141.0000;749.6531
142.0000;754.4211
143.0000;761.1093
144.0000;765.0871
145.0000;764.9337
146.0000;763.5311
147.0000;763.6207
148.0000;765.4442
149.0000;768.0064
150.0000;771.0948
151.0000;774.5006
152.0000;776.7142
153.0000;777.1376
154.0000;775.0447
155.0000;771.5992
156.0000;768.3967
157.0000;766.0368
158.0000;763.7665
159.0000;760.6785
160.0000;757.1146
161.0000;754.5707
162.0000;752.8080
163.0000;752.7155
164.0000;754.9302
165.0000;759.6552
166.0000;766.9714
167.0000;773.5179
168.0000;777.1632
169.0000;776.4157
170.0000;772.9437
171.0000;769.4924
172.0000;765.8262
173.0000;762.5330
174.0000;759.7617
175.0000;758.4431
176.0000;758.5807
177.0000;759.4337
178.0000;761.3354
179.0000;763.8923
180.0000;766.4704
181.0000;768.7410
182.0000;769.9798
183.0000;769.7480
184.0000;767.8080
185.0000;765.9106
186.0000;766.2899
187.0000;768.4440
188.0000;770.2550
189.0000;769.2947
190.0000;766.1180
191.0000;762.6317
192.0000;760.7386
193.0000;760.5767
194.0000;761.3129
195.0000;762.5718
196.0000;764.0892
197.0000;764.0914
198.0000;760.4219
199.0000;754.0411
200.0000;748.2192
201.0000;745.2567
202.0000;745.5585
203.0000;747.7864
204.0000;750.4184
205.0000;753.7933
206.0000;756.1941
207.0000;755.9310
208.0000;753.5373
209.0000;751.1890
210.0000;750.7000
211.0000;751.6703
212.0000;753.7276
213.0000;756.5415
214.0000;759.7844
215.0000;762.9000
216.0000;765.6868
217.0000;767.3040
218.0000;768.1414
219.0000;768.8434
220.0000;768.7274
221.0000;768.6646
222.0000;769.5829
223.0000;770.5547
224.0000;770.9769
225.0000;770.0787
226.0000;768.8741
227.0000;768.6125
228.0000;770.4809
229.0000;773.2665
230.0000;775.4796
231.0000;775.8265
232.0000;775.7005
233.0000;777.0710
234.0000;781.5543
235.0000;786.0776
236.0000;788.0800
237.0000;785.9224
238.0000;781.6328
239.0000;778.4547
240.0000;777.9135
241.0000;778.7148
242.0000;779.5873
243.0000;780.2773
244.0000;780.9471
245.0000;781.1564
246.0000;780.6513
247.0000;780.3078
248.0000;781.3594
249.0000;784.0610
250.0000;786.4687
251.0000;786.9388
252.0000;784.7755
253.0000;781.8777
254.0000;780.1251
255.0000;779.9908
256.0000;781.2779
257.0000;784.4124
258.0000;788.9904
259.0000;792.0904
260.0000;790.4793
261.0000;784.4749
262.0000;777.9496
263.0000;775.2347
264.0000;776.6262
265.0000;779.8322
266.0000;782.2838
267.0000;784.4974
268.0000;786.5638
269.0000;788.8596
270.0000;790.5297
271.0000;791.3605
272.0000;791.2329
273.0000;790.1718
274.0000;789.5882
275.0000;790.8271
276.0000;793.2927
277.0000;796.2000
278.0000;799.4664
279.0000;802.1697
280.0000;803.8115
281.0000;804.5163
282.0000;803.4774
283.0000;801.3133
284.0000;797.1780
285.0000;793.8384
286.0000;794.7122
287.0000;802.9418
288.0000;814.1586
289.0000;822.8079
290.0000;825.4662
291.0000;823.6221
292.0000;821.2114
293.0000;819.6086
294.0000;817.0655
295.0000;813.2809
296.0000;808.1880
297.0000;804.2013
298.0000;803.0913
299.0000;806.0035
300.0000;810.9571
301.0000;815.3776
302.0000;818.2038
303.0000;819.3165
304.0000;818.0761
305.0000;814.2567
306.0000;811.0945
307.0000;812.4432
308.0000;818.4839
309.0000;825.2205
310.0000;829.7752
311.0000;831.5707
312.0000;831.6103
313.0000;831.2509
314.0000;829.7701
315.0000;828.5556
316.0000;829.3707
317.0000;831.3357
318.0000;833.0370
319.0000;832.5122
320.0000;831.2215
321.0000;831.2614
322.0000;834.9978
323.0000;840.2621
324.0000;844.7234
325.0000;846.4810
326.0000;845.9490
327.0000;844.7635
328.0000;844.1748
329.0000;842.9156
330.0000;840.6951
331.0000;837.1261
332.0000;833.7530
333.0000;831.9335
334.0000;832.2510
335.0000;834.7889
336.0000;839.1146
337.0000;844.8442
338.0000;850.0691
339.0000;852.6702
340.0000;851.4131
341.0000;848.9890
342.0000;848.9287
343.0000;851.3572
344.0000;854.5676
345.0000;857.7996
346.0000;860.6420
347.0000;862.5871
348.0000;863.9081
349.0000;863.9150
350.0000;863.2894
351.0000;862.6854
352.0000;862.1522
353.0000;862.6221
354.0000;865.1646
355.0000;869.0264
356.0000;872.5114
357.0000;875.5244
358.0000;876.6240
359.0000;875.7249
360.0000;872.3257
361.0000;867.4846
362.0000;863.0213
363.0000;859.7730
364.0000;859.4372
365.0000;863.4417
366.0000;872.9240
367.0000;883.6804
368.0000;889.5012
369.0000;887.8906
370.0000;882.9259
371.0000;881.0931
372.0000;883.1866
373.0000;885.7875
374.0000;886.4775
375.0000;885.0610
376.0000;883.1885
377.0000;882.2419
378.0000;882.3653
379.0000;883.6031
380.0000;886.1346
381.0000;889.5862
382.0000;893.0400
383.0000;896.4127
384.0000;898.4341
385.0000;899.0000
386.0000;897.8751
387.0000;895.4260
388.0000;893.7052
389.0000;894.0803
390.0000;896.2874
391.0000;899.8065
392.0000;905.0958
393.0000;909.9091
394.0000;912.5367
395.0000;911.4255
396.0000;908.0935
397.0000;905.5867
398.0000;904.6489
399.0000;904.7571
400.0000;905.5875
401.0000;907.3097
402.0000;909.2040
403.0000;910.1646
404.0000;910.1140
405.0000;910.6016
406.0000;913.4728
407.0000;917.8655
408.0000;922.4301
409.0000;926.2000
410.0000;928.3411
411.0000;929.5722
412.0000;932.2617
413.0000;933.3909
414.0000;931.1855
415.0000;922.1243
416.0000;912.1027
417.0000;909.7678
418.0000;921.5554
419.0000;939.4117
420.0000;951.5914
421.0000;952.0043
422.0000;945.8769
423.0000;939.9227
424.0000;935.7124
425.0000;933.5487
426.0000;935.8765
427.0000;943.3877
428.0000;951.8375
429.0000;957.8909
430.0000;960.1110
431.0000;959.8486
432.0000;958.6225
433.0000;956.0236
434.0000;954.5773
435.0000;958.2892
436.0000;964.2725
437.0000;967.4864
438.0000;962.9446
439.0000;954.6707
440.0000;947.8511
441.0000;946.6174
442.0000;949.2804
443.0000;952.8734
444.0000;956.3885
445.0000;959.9163
446.0000;962.5439
447.0000;963.4897
448.0000;963.6055
449.0000;964.5150
450.0000;966.1967
451.0000;968.4533
452.0000;971.7053
453.0000;975.4909
454.0000;979.2382
455.0000;983.4399
456.0000;986.9370
457.0000;989.7772
458.0000;992.2147
459.0000;993.9058
460.0000;996.6537
461.0000;1003.0890
462.0000;1010.3240
463.0000;1016.6670
464.0000;1020.7240
465.0000;1022.7970
466.0000;1025.8080
467.0000;1030.6450
468.0000;1035.2430
469.0000;1039.5590
470.0000;1043.0930
471.0000;1045.5560
472.0000;1048.1980
473.0000;1050.3810
474.0000;1052.5320
475.0000;1056.0200
476.0000;1060.1170
477.0000;1064.6970
478.0000;1070.9110
479.0000;1076.8160
480.0000;1081.4000
481.0000;1086.1420
482.0000;1087.6290
483.0000;1085.7200
484.0000;1080.1530
485.0000;1071.8900
486.0000;1064.0700
487.0000;1058.5460
488.0000;1055.3000
489.0000;1052.6980
490.0000;1051.1970
491.0000;1051.0220
492.0000;1050.3720
493.0000;1049.5430
494.0000;1048.8240
495.0000;1047.2130
496.0000;1045.5540
497.0000;1045.4180
498.0000;1048.7190
499.0000;1054.0880
500.0000;1058.1000
501.0000;1057.2200
502.0000;1053.6590
503.0000;1051.6180
504.0000;1054.7170
505.0000;1059.3190
506.0000;1061.9040
507.0000;1060.5140
508.0000;1056.8930
509.0000;1053.2490
510.0000;1050.1220
511.0000;1048.7040
512.0000;1049.4460
513.0000;1053.1440
514.0000;1059.6620
515.0000;1069.5720
516.0000;1080.8450
517.0000;1089.6240
518.0000;1092.7200
519.0000;1089.9260
520.0000;1086.4910
521.0000;1087.3580
522.0000;1089.3880
523.0000;1091.4090
524.0000;1092.5420
525.0000;1093.4700
526.0000;1094.8680
527.0000;1096.6530
528.0000;1099.5780
529.0000;1105.5010
530.0000;1113.6550
531.0000;1121.1120
532.0000;1125.6830
533.0000;1126.3120
534.0000;1126.1630
535.0000;1129.8960
536.0000;1134.8780
537.0000;1139.2000
538.0000;1140.8950
539.0000;1141.2600
540.0000;1144.1310
541.0000;1152.9460
542.0000;1162.5650
543.0000;1168.2680
544.0000;1167.7790
545.0000;1163.3240
546.0000;1158.8500
547.0000;1155.3300
548.0000;1153.5300
549.0000;1155.2390
550.0000;1160.4510
551.0000;1165.8960
552.0000;1168.3910
553.0000;1168.1060
554.0000;1167.0000
555.0000;1167.6420
556.0000;1167.9930
557.0000;1167.2200
558.0000;1164.5840
559.0000;1161.2350
560.0000;1158.7470
561.0000;1157.8040
562.0000;1158.1770
563.0000;1158.8770
564.0000;1159.9610
565.0000;1161.3850
566.0000;1162.8820
567.0000;1164.1200
568.0000;1164.4510
569.0000;1163.2650
570.0000;1160.9300
571.0000;1159.2740
572.0000;1159.4960
573.0000;1161.2040
574.0000;1163.5800
575.0000;1166.7740
576.0000;1168.8840
577.0000;1167.9390
578.0000;1162.8630
579.0000;1156.9130
580.0000;1154.8650
581.0000;1157.2220
582.0000;1159.6410
583.0000;1156.7230
584.0000;1149.8780
585.0000;1143.7730
586.0000;1141.3940
587.0000;1142.5160
588.0000;1144.4520
589.0000;1144.8840
590.0000;1145.3700
591.0000;1146.0750
592.0000;1147.1420
593.0000;1148.0590
594.0000;1148.8880
595.0000;1149.3870
596.0000;1148.7590
597.0000;1146.1030
598.0000;1141.7010
599.0000;1138.2400
600.0000;1137.7460
601.0000;1140.0590
602.0000;1142.8500
603.0000;1144.0580
604.0000;1144.2140
605.0000;1143.3390
606.0000;1140.9210
607.0000;1138.8340
608.0000;1139.7280
609.0000;1144.7690
610.0000;1151.0340
611.0000;1155.6890
612.0000;1157.9020
613.0000;1157.9900
614.0000;1156.2070
615.0000;1152.9630
616.0000;1151.8660
617.0000;1156.3680
618.0000;1164.3890
619.0000;1172.0570
620.0000;1177.0990
621.0000;1180.4690
622.0000;1185.3320
623.0000;1192.0360
624.0000;1198.0610
625.0000;1204.0110
626.0000;1208.3180
627.0000;1210.8800
628.0000;1213.7840
629.0000;1215.3660
630.0000;1215.9750
631.0000;1218.0320
632.0000;1218.7740
633.0000;1216.7070
634.0000;1210.9150
635.0000;1202.8840
636.0000;1195.6010
637.0000;1191.0780
638.0000;1187.4870
639.0000;1181.3860
640.0000;1173.7860
641.0000;1167.4900
642.0000;1162.8750
643.0000;1161.3210
644.0000;1160.1570
645.0000;1155.3760
646.0000;1150.2180
647.0000;1146.2730
648.0000;1144.5380
649.0000;1144.8880
650.0000;1144.8270
651.0000;1143.6130
652.0000;1143.4650
653.0000;1146.3600
654.0000;1151.9740
655.0000;1155.8480
656.0000;1153.9240
657.0000;1146.8930
658.0000;1139.8000
659.0000;1136.1390
660.0000;1135.9550
661.0000;1138.1290
662.0000;1142.8200
663.0000;1148.1870
664.0000;1150.9000
665.0000;1149.4260
666.0000;1145.1970
667.0000;1140.0460
668.0000;1134.6640
669.0000;1130.2920
670.0000;1128.9670
671.0000;1130.3320
672.0000;1130.4140
673.0000;1124.9720
674.0000;1117.9320
675.0000;1112.6820
676.0000;1111.5090
677.0000;1112.3850
678.0000;1111.3260
679.0000;1108.1340
680.0000;1105.6700
681.0000;1105.7300
682.0000;1108.3660
683.0000;1110.8830
684.0000;1110.7940
685.0000;1108.7940
686.0000;1106.1530
687.0000;1103.6640
688.0000;1101.4000
689.0000;1099.4050
690.0000;1097.9850
691.0000;1097.3960
692.0000;1096.7160
693.0000;1096.3680
694.0000;1097.1760
695.0000;1100.1900
696.0000;1104.2970
697.0000;1106.7190
698.0000;1104.8960
699.0000;1100.5800
700.0000;1097.3700
701.0000;1097.4280
702.0000;1098.8990
703.0000;1099.5870
704.0000;1099.1090
705.0000;1098.6330
706.0000;1098.9820
707.0000;1099.9830
708.0000;1100.9590
709.0000;1101.3950
710.0000;1101.3550
711.0000;1101.2070
712.0000;1101.2070
713.0000;1101.1510
714.0000;1100.8490
715.0000;1100.2230
716.0000;1100.3670
717.0000;1102.6100
718.0000;1106.6450
719.0000;1110.2540
720.0000;1112.1270
721.0000;1111.5960
722.0000;1109.2760
723.0000;1105.2210
724.0000;1101.0630
725.0000;1099.5830
726.0000;1102.4510
727.0000;1107.1390
728.0000;1109.9960
729.0000;1110.4700
730.0000;1109.4160
731.0000;1107.8420
732.0000;1105.4160
733.0000;1102.7300
734.0000;1099.9910
735.0000;1098.2730
736.0000;1097.9630
737.0000;1099.4540
738.0000;1102.4710
739.0000;1106.1710
740.0000;1110.0410
741.0000;1112.9370
742.0000;1113.6090
743.0000;1112.0600
744.0000;1110.8000
745.0000;1112.7720
746.0000;1115.8430
747.0000;1118.2720
748.0000;1119.0000
749.0000;1118.5550
750.0000;1118.2340
751.0000;1118.0600
752.0000;1117.3050
753.0000;1115.5380
754.0000;1113.1290
755.0000;1111.0000
756.0000;1109.4340
757.0000;1109.2030
758.0000;1110.1960
759.0000;1112.3860
760.0000;1115.3310
761.0000;1117.9160
762.0000;1119.4410
763.0000;1120.8780
764.0000;1123.4610
765.0000;1126.5250
766.0000;1130.2000
767.0000;1135.8040
768.0000;1140.6190
769.0000;1143.2540
770.0000;1142.6200
771.0000;1138.7890
772.0000;1132.9810
773.0000;1125.7920
774.0000;1122.3960
775.0000;1129.3730
776.0000;1144.8600
777.0000;1157.2000
778.0000;1156.5040
779.0000;1148.3970
780.0000;1143.4820
781.0000;1147.8150
782.0000;1155.3880
783.0000;1162.2040
784.0000;1166.4320
785.0000;1168.2470
786.0000;1168.1210
787.0000;1165.1970
788.0000;1161.8350
789.0000;1160.1720
790.0000;1159.4530
791.0000;1158.3820
792.0000;1156.1420
793.0000;1155.8190
794.0000;1160.7870
795.0000;1171.1410
796.0000;1179.1650
797.0000;1177.5970
798.0000;1168.3300
799.0000;1161.0890
800.0000;1163.1380
801.0000;1169.7020
802.0000;1175.3320
803.0000;1177.2450
804.0000;1178.0160
805.0000;1180.5700
806.0000;1183.8420
807.0000;1185.5000
808.0000;1183.2640
809.0000;1178.5280
810.0000;1175.8410
811.0000;1178.3170
812.0000;1183.5660
813.0000;1188.2110
814.0000;1191.2270
815.0000;1192.7760
816.0000;1192.5470
817.0000;1190.8930
818.0000;1191.8960
819.0000;1200.9310
820.0000;1213.0890
821.0000;1221.3170
822.0000;1221.3600
823.0000;1216.0320
824.0000;1210.9610
825.0000;1207.1810
826.0000;1204.7190
827.0000;1205.0530
828.0000;1207.8470
829.0000;1209.9120
830.0000;1208.3690
831.0000;1204.6600
832.0000;1200.0830
833.0000;1194.6530
834.0000;1191.8990
835.0000;1195.4480
836.0000;1204.9790
837.0000;1214.0700
838.0000;1215.6740
839.0000;1211.4190
840.0000;1207.0110
841.0000;1205.0520
842.0000;1205.7720
843.0000;1211.1460
844.0000;1221.2880
845.0000;1230.2270
846.0000;1230.7030
847.0000;1223.1230
848.0000;1215.8200
849.0000;1216.2770
850.0000;1220.7530
851.0000;1224.9590
852.0000;1226.7860
853.0000;1227.5360
854.0000;1228.1370
855.0000;1228.3060
856.0000;1228.5200
857.0000;1229.1430
858.0000;1230.5230
859.0000;1233.6500
860.0000;1239.4610
861.0000;1245.7970
862.0000;1250.9910
863.0000;1253.6530
864.0000;1254.6900
865.0000;1256.1340
866.0000;1257.1160
867.0000;1258.3590
868.0000;1260.7750
869.0000;1263.8060
870.0000;1268.2740
871.0000;1274.5950
872.0000;1278.9160
873.0000;1278.1120
874.0000;1271.6880
875.0000;1265.1520
876.0000;1263.8630
877.0000;1266.4270
878.0000;1269.7910
879.0000;1272.2510
880.0000;1273.9120
881.0000;1274.0660
882.0000;1272.2510
883.0000;1269.9680
884.0000;1267.8060
885.0000;1267.2200
886.0000;1270.6220
887.0000;1280.5500
888.0000;1293.0280
889.0000;1302.8950
890.0000;1307.0130
891.0000;1307.6110
892.0000;1309.6200
893.0000;1311.4840
894.0000;1313.2000
895.0000;1316.5390
896.0000;1319.3420
897.0000;1320.5570
898.0000;1318.9950
899.0000;1317.6820
900.0000;1321.2970
901.0000;1329.5060
902.0000;1336.9510
903.0000;1339.1090
904.0000;1336.8050
905.0000;1335.1550
906.0000;1337.0850
907.0000;1339.9270
908.0000;1342.0700
909.0000;1343.0150
910.0000;1344.1490
911.0000;1347.6410
912.0000;1351.9730
913.0000;1354.7190
914.0000;1354.1580
915.0000;1352.1680
916.0000;1352.3700
917.0000;1355.7270
918.0000;1360.4020
919.0000;1364.7890
920.0000;1368.4080
921.0000;1371.5570
922.0000;1375.6590
923.0000;1378.0620
924.0000;1377.9530
925.0000;1374.6190
926.0000;1370.6910
927.0000;1369.6980
928.0000;1371.9600
929.0000;1375.4000
930.0000;1378.3800
931.0000;1381.1580
932.0000;1383.7800
933.0000;1385.7160
934.0000;1387.2860
935.0000;1390.4520
936.0000;1394.0960
937.0000;1396.1640
938.0000;1395.4680
939.0000;1392.1950
940.0000;1389.2470
941.0000;1388.0760
942.0000;1387.5460
943.0000;1386.0740
944.0000;1384.1540
945.0000;1383.5480
946.0000;1385.3800
947.0000;1389.1770
948.0000;1393.2940
949.0000;1396.6500
950.0000;1398.4420
951.0000;1398.6650
952.0000;1396.6650
953.0000;1393.0450
954.0000;1388.1510
955.0000;1383.4750
956.0000;1380.6580
957.0000;1381.1780
958.0000;1383.9430
959.0000;1386.4380
960.0000;1387.9500
961.0000;1387.9620
962.0000;1384.6110
963.0000;1379.9170
964.0000;1378.4570
965.0000;1383.6670
966.0000;1392.0020
967.0000;1398.2200
968.0000;1400.9130
969.0000;1401.5560
970.0000;1402.4880
971.0000;1402.5340
972.0000;1402.7970
973.0000;1403.5660
974.0000;1405.6830
975.0000;1411.4280
976.0000;1420.2500
977.0000;1427.6050
978.0000;1427.9790
979.0000;1423.3880
980.0000;1423.1140
981.0000;1434.5430
982.0000;1447.3950
983.0000;1450.2750
984.0000;1440.3720
985.0000;1428.9510
986.0000;1427.4660
987.0000;1432.6410
988.0000;1436.6120
989.0000;1433.3700
990.0000;1429.3180
991.0000;1431.3120
992.0000;1439.8500
993.0000;1447.6440
994.0000;1447.4320
995.0000;1441.0250
996.0000;1435.1300
997.0000;1434.1700
998.0000;1434.6750
999.0000;1433.9390
1000.0000;1431.6210
1001.0000;1426.8880
1002.0000;1416.8100
1003.0000;1405.3770
1004.0000;1399.0350
1005.0000;1402.2730
1006.0000;1409.5020
1007.0000;1410.3630
1008.0000;1404.5530
1009.0000;1398.5930
1010.0000;1396.9110
1011.0000;1399.7010
1012.0000;1406.6910
1013.0000;1418.6380
1014.0000;1428.5250
1015.0000;1429.1910
1016.0000;1419.0660
1017.0000;1408.4830
1018.0000;1408.0010
1019.0000;1412.7960
1020.0000;1415.6940
1021.0000;1413.3480
1022.0000;1409.9840
1023.0000;1408.6810
1024.0000;1409.5690
1025.0000;1410.6030
1026.0000;1410.2460
1027.0000;1409.1000
1028.0000;1407.0970
1029.0000;1404.1770
1030.0000;1402.7460
1031.0000;1405.1670
1032.0000;1410.9990
1033.0000;1416.1930
1034.0000;1417.5770
1035.0000;1416.4940
1036.0000;1415.7980
1037.0000;1416.0000
1038.0000;1416.8130
1039.0000;1419.1540
1040.0000;1422.0620
1041.0000;1423.5180
1042.0000;1421.7090
1043.0000;1419.0660
1044.0000;1418.9240
1045.0000;1422.1280
1046.0000;1426.2210
1047.0000;1428.1680
1048.0000;1429.4290
1049.0000;1433.5770
1050.0000;1443.1580
1051.0000;1452.1120
1052.0000;1455.4340
1053.0000;1451.7590
1054.0000;1446.5890
1055.0000;1446.3850
1056.0000;1448.3860
1057.0000;1449.9120
1058.0000;1449.6210
1059.0000;1449.7680
1060.0000;1452.4410
1061.0000;1457.1150
1062.0000;1461.8060
1063.0000;1466.7570
1064.0000;1468.6730
1065.0000;1464.8030
1066.0000;1453.8660
1067.0000;1444.6970
1068.0000;1446.8500
1069.0000;1458.5460
1070.0000;1469.9410
1071.0000;1474.6780
1072.0000;1474.7570
1073.0000;1473.3470
1074.0000;1470.1980
1075.0000;1466.5120
1076.0000;1463.8460
1077.0000;1463.1320
1078.0000;1465.0170
1079.0000;1470.2900
1080.0000;1476.0410
1081.0000;1478.2780
1082.0000;1476.4010
1083.0000;1474.5190
1084.0000;1476.6800
1085.0000;1480.0560
1086.0000;1482.0960
1087.0000;1481.6180
1088.0000;1481.1280
1089.0000;1484.0330
1090.0000;1488.7680
1091.0000;1491.9230
1092.0000;1490.7280
1093.0000;1487.7010
1094.0000;1487.1000
1095.0000;1489.4480
1096.0000;1491.4310
1097.0000;1491.4420
1098.0000;1488.5770
1099.0000;1481.9530
1100.0000;1470.8950
1101.0000;1460.0720
1102.0000;1453.3960
1103.0000;1452.8400
1104.0000;1454.4450
1105.0000;1453.7420
1106.0000;1453.3590
1107.0000;1452.9730
1108.0000;1452.6060
1109.0000;1451.1730
1110.0000;1446.8510
1111.0000;1441.0870
1112.0000;1437.1520
1113.0000;1437.2030
1114.0000;1438.6020
1115.0000;1437.0000
1116.0000;1432.3420
1117.0000;1426.1720
1118.0000;1418.2010
1119.0000;1410.9950
1120.0000;1406.9770
1121.0000;1407.8600
1122.0000;1409.0190
1123.0000;1403.3450
1124.0000;1392.9960
1125.0000;1381.8850
1126.0000;1372.5330
1127.0000;1366.9280
1128.0000;1364.6230
1129.0000;1366.9530
1130.0000;1369.4700
1131.0000;1366.4120
1132.0000;1360.2340
1133.0000;1352.7700
1134.0000;1344.7530
1135.0000;1339.3940
1136.0000;1338.8330
1137.0000;1342.9930
1138.0000;1344.8640
1139.0000;1337.5370
1140.0000;1328.2630
1141.0000;1323.8480
1142.0000;1326.6360
1143.0000;1331.2460
1144.0000;1331.6700
1145.0000;1330.1880
1146.0000;1329.0220
1147.0000;1329.5020
1148.0000;1328.7700
1149.0000;1323.4380
1150.0000;1315.0330
1151.0000;1309.5690
1152.0000;1312.0720
1153.0000;1316.9840
1154.0000;1315.0250
1155.0000;1305.0290
1156.0000;1294.5940
1157.0000;1290.3600
1158.0000;1291.2550
1159.0000;1292.2450
1160.0000;1291.4510
1161.0000;1290.7110
1162.0000;1290.2150
1163.0000;1289.7930
1164.0000;1288.1690
1165.0000;1283.8540
1166.0000;1279.6830
1167.0000;1279.5460
1168.0000;1283.8580
1169.0000;1286.3490
1170.0000;1279.3660
1171.0000;1268.3420
1172.0000;1262.6420
1173.0000;1266.7530
1174.0000;1272.6760
1175.0000;1270.3890
1176.0000;1262.2230
1177.0000;1254.9550
1178.0000;1252.2510
1179.0000;1253.6940
1180.0000;1258.6850
1181.0000;1266.3200
1182.0000;1271.0000
1183.0000;1265.7850
1184.0000;1256.1750
1185.0000;1251.6760
1186.0000;1256.3960
1187.0000;1261.3960
1188.0000;1256.9370
1189.0000;1247.2850
1190.0000;1241.7770
1191.0000;1245.6200
1192.0000;1253.3220
1193.0000;1257.7200
1194.0000;1258.4620
1195.0000;1257.4550
1196.0000;1255.8960
1197.0000;1253.9550
1198.0000;1253.5360
1199.0000;1255.2760
1200.0000;1257.5520
1201.0000;1259.2240
1202.0000;1259.9140
1203.0000;1259.1980
1204.0000;1256.7360
1205.0000;1253.8360
1206.0000;1252.9590
1207.0000;1253.1910
1208.0000;1250.9190
1209.0000;1243.0940
1210.0000;1235.1010
1211.0000;1231.2720
1212.0000;1233.2110
1213.0000;1238.7430
1214.0000;1245.6100
1215.0000;1252.8950
1216.0000;1257.8270
1217.0000;1258.6770
1218.0000;1258.0090
1219.0000;1261.3750
1220.0000;1264.4480
1221.0000;1262.3860
1222.0000;1252.5390
1223.0000;1241.5660
1224.0000;1236.0040
1225.0000;1236.9930
1226.0000;1240.4620
1227.0000;1243.9480
1228.0000;1248.0130
1229.0000;1251.0700
1230.0000;1252.2750
1231.0000;1252.4050
1232.0000;1251.8460
1233.0000;1251.5070
1234.0000;1254.8860
1235.0000;1262.4490
1236.0000;1267.4790
1237.0000;1263.1040
1238.0000;1253.2970
1239.0000;1247.8870
1240.0000;1251.6010
1241.0000;1258.9340
1242.0000;1264.7180
1243.0000;1268.1350
1244.0000;1268.4000
1245.0000;1264.7350
1246.0000;1258.4790
1247.0000;1252.9450
1248.0000;1249.1150
1249.0000;1246.4240
1250.0000;1242.5390
1251.0000;1242.1360
1252.0000;1248.5070
1253.0000;1261.7470
1254.0000;1272.2220
1255.0000;1271.7770
1256.0000;1262.5680
1257.0000;1252.8850
1258.0000;1245.6530
1259.0000;1241.5540
1260.0000;1240.4320
1261.0000;1244.2430
1262.0000;1250.9900
1263.0000;1259.9530
1264.0000;1267.2020
1265.0000;1267.9590
1266.0000;1262.1780
1267.0000;1256.2530
1268.0000;1254.5710
1269.0000;1254.9010
1270.0000;1254.8190
1271.0000;1254.9130
1272.0000;1256.5680
1273.0000;1261.4430
1274.0000;1266.0700
1275.0000;1266.0610
1276.0000;1260.1520
1277.0000;1254.4890
1278.0000;1254.2700
1279.0000;1257.6280
1280.0000;1260.6890
1281.0000;1262.0800
1282.0000;1264.3530
1283.0000;1271.1930
1284.0000;1278.5310
1285.0000;1279.7060
1286.0000;1271.2130
1287.0000;1262.8230
1288.0000;1267.0190
1289.0000;1280.1160
1290.0000;1290.2360
1291.0000;1290.5070
1292.0000;1285.2490
1293.0000;1279.7810
1294.0000;1275.0920
1295.0000;1275.4400
1296.0000;1285.6110
1297.0000;1297.4400
1298.0000;1299.4530
1299.0000;1290.5440
1300.0000;1282.6210
1301.0000;1286.5830
1302.0000;1294.7320
1303.0000;1298.3690
1304.0000;1295.4660
1305.0000;1290.9950
1306.0000;1288.8500
1307.0000;1288.1500
1308.0000;1288.0100
1309.0000;1288.5420
1310.0000;1290.3450
1311.0000;1293.5120
1312.0000;1297.3850
1313.0000;1301.4510
1314.0000;1304.8000
1315.0000;1306.7150
1316.0000;1308.6270
1317.0000;1308.2050
1318.0000;1303.5470
1319.0000;1293.4650
1320.0000;1285.2660
1321.0000;1288.3560
1322.0000;1300.2970
1323.0000;1307.6700
1324.0000;1302.7590
1325.0000;1293.1470
1326.0000;1285.8830
1327.0000;1282.7090
1328.0000;1284.0410
1329.0000;1291.6150
1330.0000;1299.9350
1331.0000;1299.1760
1332.0000;1289.4560
1333.0000;1281.6130
1334.0000;1284.0400
1335.0000;1290.1900
1336.0000;1290.3270
1337.0000;1284.5520
1338.0000;1281.6410
1339.0000;1289.6810
1340.0000;1300.2020
1341.0000;1302.8670
1342.0000;1294.9990
1343.0000;1286.6000
1344.0000;1285.2900
1345.0000;1288.8120
1346.0000;1294.2700
1347.0000;1300.6520
1348.0000;1305.2630
1349.0000;1305.4010
1350.0000;1302.3830
1351.0000;1302.4550
1352.0000;1307.1450
1353.0000;1309.8420
1354.0000;1305.2330
1355.0000;1295.7790
1356.0000;1287.0460
1357.0000;1281.8410
1358.0000;1280.1700
1359.0000;1280.0570
1360.0000;1283.9760
1361.0000;1291.3970
1362.0000;1302.5250
1363.0000;1309.7330
1364.0000;1305.5980
1365.0000;1292.8230
1366.0000;1283.7400
1367.0000;1284.3870
1368.0000;1290.1260
1369.0000;1297.4620
1370.0000;1304.7880
1371.0000;1307.2300
1372.0000;1301.5020
1373.0000;1293.5730
1374.0000;1290.7470
1375.0000;1292.3320
1376.0000;1293.5020
1377.0000;1291.9350
1378.0000;1290.2690
1379.0000;1289.8590
1380.0000;1290.7380
1381.0000;1291.8280
1382.0000;1292.6050
1383.0000;1292.9270
1384.0000;1291.9140
1385.0000;1290.3790
1386.0000;1291.3400
1387.0000;1297.0410
1388.0000;1302.9240
1389.0000;1303.3790
1390.0000;1299.4070
1391.0000;1298.4980
1392.0000;1305.8000
1393.0000;1313.2720
1394.0000;1313.7320
1395.0000;1307.0580
1396.0000;1300.0850
1397.0000;1297.0510
1398.0000;1296.3040
1399.0000;1296.5700
1400.0000;1297.6820
1401.0000;1296.1810
1402.0000;1289.0080
1403.0000;1281.8580
1404.0000;1280.0950
1405.0000;1284.2970
1406.0000;1289.3920
1407.0000;1291.4960
1408.0000;1294.2350
1409.0000;1301.6730
1410.0000;1311.4650
1411.0000;1318.5970
1412.0000;1320.0160
1413.0000;1317.3070
1414.0000;1316.3690
1415.0000;1315.7430
1416.0000;1312.5160
1417.0000;1304.6100
1418.0000;1297.5820
1419.0000;1297.3950
1420.0000;1303.7870
1421.0000;1307.5350
1422.0000;1302.7740
1423.0000;1296.9800
1424.0000;1298.8820
1425.0000;1306.1690
1426.0000;1308.5740
1427.0000;1298.5180
1428.0000;1289.3000
1429.0000;1296.9450
1430.0000;1317.0930
1431.0000;1331.9960
1432.0000;1331.1400
1433.0000;1323.5760
1434.0000;1322.4140
1435.0000;1324.5180
1436.0000;1323.8400
1437.0000;1317.8310
1438.0000;1309.9010
1439.0000;1302.7270
1440.0000;1297.5330
1441.0000;1292.7030
1442.0000;1288.0670
1443.0000;1286.3540
1444.0000;1287.5580
1445.0000;1292.0520
1446.0000;1295.9710
1447.0000;1297.4970
1448.0000;1297.6390
1449.0000;1297.3880
1450.0000;1296.6970
1451.0000;1297.5400
1452.0000;1300.9260
1453.0000;1302.5420
1454.0000;1297.8810
1455.0000;1289.5400
1456.0000;1283.2580
1457.0000;1282.1640
1458.0000;1283.2980
1459.0000;1282.1040
1460.0000;1281.6300
1461.0000;1284.3660
1462.0000;1291.0590
1463.0000;1295.1690
1464.0000;1289.9170
1465.0000;1280.5590
1466.0000;1278.6350
1467.0000;1286.7520
1468.0000;1295.0000
1469.0000;1293.3850
1470.0000;1287.2770
1471.0000;1284.3630
1472.0000;1286.3340
1473.0000;1288.9480
1474.0000;1288.9280
1475.0000;1287.8520
1476.0000;1287.4080
1477.0000;1287.4880
1478.0000;1286.3350
1479.0000;1282.4660
1480.0000;1278.0780
1481.0000;1276.3600
1482.0000;1277.3290
1483.0000;1276.1410
1484.0000;1268.2640
1485.0000;1260.6790
1486.0000;1259.0780
1487.0000;1264.2370
1488.0000;1270.6920
1489.0000;1274.5960
1490.0000;1277.4240
1491.0000;1280.7700
1492.0000;1282.8320
1493.0000;1282.4020
1494.0000;1278.8640
1495.0000;1273.9860
1496.0000;1269.0690
1497.0000;1266.3870
1498.0000;1268.4590
1499.0000;1277.0460
1500.0000;1284.6220
1501.0000;1284.0950
1502.0000;1276.9810
1503.0000;1269.2040
1504.0000;1263.3960
1505.0000;1259.9060
1506.0000;1257.3320
1507.0000;1258.6420
1508.0000;1263.8670
1509.0000;1272.6110
1510.0000;1279.0100
1511.0000;1278.9350
1512.0000;1273.5390
1513.0000;1267.9750
1514.0000;1263.2240
1515.0000;1261.0650
1516.0000;1262.9910
1517.0000;1267.5790
1518.0000;1270.8330
1519.0000;1272.0950
1520.0000;1272.0770
1521.0000;1270.8130
1522.0000;1269.1370
1523.0000;1268.9320
1524.0000;1270.1650
1525.0000;1271.8420
1526.0000;1273.3880
1527.0000;1275.0740
1528.0000;1278.0380
1529.0000;1280.5190
1530.0000;1280.3300
1531.0000;1276.5640
1532.0000;1272.7550
1533.0000;1273.2950
1534.0000;1276.2790
1535.0000;1278.0190
1536.0000;1277.4740
1537.0000;1274.8010
1538.0000;1269.3370
1539.0000;1263.6020
1540.0000;1260.3250
1541.0000;1261.1030
1542.0000;1265.0120
1543.0000;1271.9000
1544.0000;1278.7220
1545.0000;1280.8310
1546.0000;1277.9040
1547.0000;1276.0040
1548.0000;1278.8110
1549.0000;1282.3160
1550.0000;1284.0100
1551.0000;1283.3260
1552.0000;1280.1660
1553.0000;1274.2910
1554.0000;1270.4660
1555.0000;1274.8000
1556.0000;1282.8080
1557.0000;1284.3810
1558.0000;1276.6150
1559.0000;1267.1030
1560.0000;1261.3060
1561.0000;1259.5220
1562.0000;1260.8560
1563.0000;1265.5580
1564.0000;1269.3490
1565.0000;1268.4870
1566.0000;1265.5000
1567.0000;1263.3390
1568.0000;1262.4630
1569.0000;1263.3180
1570.0000;1266.3880
1571.0000;1270.0030
1572.0000;1272.5930
1573.0000;1273.2210
1574.0000;1271.8740
1575.0000;1268.3760
1576.0000;1264.7330
1577.0000;1262.8000
1578.0000;1262.9800
1579.0000;1264.4200
1580.0000;1266.9720
1581.0000;1269.4580
1582.0000;1271.2860
1583.0000;1271.1320
1584.0000;1268.5140
1585.0000;1263.4290
1586.0000;1257.8080
1587.0000;1253.3360
1588.0000;1249.1790
1589.0000;1242.0750
1590.0000;1235.7720
1591.0000;1233.5690
1592.0000;1237.2660
1593.0000;1246.1290
1594.0000;1260.4800
1595.0000;1273.3980
1596.0000;1276.6570
1597.0000;1267.1370
1598.0000;1256.0150
1599.0000;1253.3800
1600.0000;1255.5110
1601.0000;1258.1980
1602.0000;1261.3550
1603.0000;1263.2470
1604.0000;1261.9880
1605.0000;1260.2910
1606.0000;1262.3770
1607.0000;1266.1270
1608.0000;1266.6450
1609.0000;1262.2380
1610.0000;1255.9400
1611.0000;1249.7450
1612.0000;1246.1380
1613.0000;1246.9280
1614.0000;1253.3190
1615.0000;1261.3510
1616.0000;1268.1730
1617.0000;1273.0560
1618.0000;1277.3850
1619.0000;1278.4190
1620.0000;1273.9100
1621.0000;1262.9610
1622.0000;1251.5640
1623.0000;1246.5450
1624.0000;1248.2500
1625.0000;1251.7200
1626.0000;1255.7820
1627.0000;1260.1300
1628.0000;1264.7480
1629.0000;1266.3130
1630.0000;1262.7950
1631.0000;1254.4650
1632.0000;1246.5080
1633.0000;1242.7690
1634.0000;1242.9710
1635.0000;1246.1370
1636.0000;1251.2400
1637.0000;1252.5770
1638.0000;1247.5060
1639.0000;1242.2680
1640.0000;1244.0750
1641.0000;1248.3620
1642.0000;1247.5070
1643.0000;1240.9510
1644.0000;1235.4170
1645.0000;1234.4610
1646.0000;1237.4070
1647.0000;1242.6900
1648.0000;1249.1910
1649.0000;1254.1690
1650.0000;1255.4230
1651.0000;1253.6870
1652.0000;1250.4080
1653.0000;1246.6630
1654.0000;1246.4570
1655.0000;1250.4120
1656.0000;1252.5490
1657.0000;1247.7530
1658.0000;1240.8520
1659.0000;1237.0900
1660.0000;1236.7120
1661.0000;1235.2500
1662.0000;1230.8330
1663.0000;1227.6480
1664.0000;1228.5300
1665.0000;1231.7140
1666.0000;1231.3150
1667.0000;1226.5590
1668.0000;1223.1560
1669.0000;1224.8990
1670.0000;1229.4900
1671.0000;1234.6160
1672.0000;1238.0680
1673.0000;1235.7860
1674.0000;1225.3650
1675.0000;1213.7450
1676.0000;1207.6830
1677.0000;1207.1450
1678.0000;1207.3030
1679.0000;1208.4290
1680.0000;1212.2400
1681.0000;1220.2630
1682.0000;1226.8410
1683.0000;1225.8300
1684.0000;1217.8280
1685.0000;1210.1290
1686.0000;1206.7980
1687.0000;1205.7300
1688.0000;1204.2680
1689.0000;1204.2110
1690.0000;1204.5270
1691.0000;1205.1780
1692.0000;1205.3610
1693.0000;1203.8640
1694.0000;1203.0450
1695.0000;1205.2710
1696.0000;1209.8290
1697.0000;1214.8050
1698.0000;1218.8070
1699.0000;1221.3000
1700.0000;1223.7960
1701.0000;1223.3970
1702.0000;1219.5370
1703.0000;1212.6910
1704.0000;1206.9480
1705.0000;1205.0140
1706.0000;1205.9290
1707.0000;1207.0010
1708.0000;1209.1040
1709.0000;1211.6130
1710.0000;1213.9350
1711.0000;1215.0640
1712.0000;1214.5670
1713.0000;1212.5150
1714.0000;1210.1240
1715.0000;1207.9800
1716.0000;1207.1190
1717.0000;1208.3170
1718.0000;1209.8440
1719.0000;1209.6610
1720.0000;1208.1440
1721.0000;1205.8280
1722.0000;1203.1220
1723.0000;1200.9270
1724.0000;1199.7790
1725.0000;1199.9590
1726.0000;1200.1680
1727.0000;1201.3100
1728.0000;1203.9500
1729.0000;1208.0270
1730.0000;1212.5270
1731.0000;1216.4700
1732.0000;1220.0130
1733.0000;1225.4290
1734.0000;1231.4550
1735.0000;1237.9580
1736.0000;1245.0840
1737.0000;1246.9760
1738.0000;1240.1700
1739.0000;1227.5710
1740.0000;1217.8010
1741.0000;1214.0810
1742.0000;1214.3470
1743.0000;1217.1860
1744.0000;1222.1540
1745.0000;1225.9920
1746.0000;1227.7890
1747.0000;1227.1920
1748.0000;1223.6650
1749.0000;1219.9230
1750.0000;1218.8810
1751.0000;1218.6940
1752.0000;1215.0300
1753.0000;1210.6050
1754.0000;1212.1380
1755.0000;1222.7550
1756.0000;1233.8260
1757.0000;1236.8910
1758.0000;1233.5870
1759.0000;1229.4620
1760.0000;1225.2660
1761.0000;1223.7400
1762.0000;1227.3650
1763.0000;1231.1630
1764.0000;1228.0740
1765.0000;1221.7320
1766.0000;1218.7620
1767.0000;1221.2660
1768.0000;1226.5410
1769.0000;1234.1610
1770.0000;1238.6220
1771.0000;1232.5690
1772.0000;1220.4520
1773.0000;1216.5250
1774.0000;1226.0380
1775.0000;1236.5600
1776.0000;1238.7310
1777.0000;1236.1200
1778.0000;1234.0240
1779.0000;1231.9080
1780.0000;1230.1290
1781.0000;1229.2130
1782.0000;1228.5000
1783.0000;1227.2070
1784.0000;1225.4110
1785.0000;1221.7550
1786.0000;1217.1420
1787.0000;1214.1490
1788.0000;1213.9780
1789.0000;1216.2870
1790.0000;1220.1590
1791.0000;1223.9660
1792.0000;1224.6040
1793.0000;1221.3190
1794.0000;1217.8310
1795.0000;1215.7330
1796.0000;1217.0340
1797.0000;1224.7270
1798.0000;1234.6380
1799.0000;1239.5660
1800.0000;1236.7900
1801.0000;1231.4250
1802.0000;1226.7140
1803.0000;1224.5820
1804.0000;1228.2040
1805.0000;1235.9210
1806.0000;1242.2360
1807.0000;1244.5650
1808.0000;1244.3650
1809.0000;1243.0160
1810.0000;1239.7690
1811.0000;1236.7210
1812.0000;1233.4070
1813.0000;1228.3060
1814.0000;1221.6790
1815.0000;1217.0610
1816.0000;1215.6190
1817.0000;1218.4860
1818.0000;1225.2400
1819.0000;1233.1570
1820.0000;1234.8280
1821.0000;1227.3980
1822.0000;1218.5540
1823.0000;1214.3990
1824.0000;1214.6440
1825.0000;1218.5700
1826.0000;1225.2910
1827.0000;1228.8760
1828.0000;1226.8520
1829.0000;1224.1580
1830.0000;1226.7650
1831.0000;1228.4560
1832.0000;1221.7830
1833.0000;1210.2020
1834.0000;1206.1270
1835.0000;1214.5950
1836.0000;1223.2080
1837.0000;1219.1150
1838.0000;1213.4890
1839.0000;1220.9790
1840.0000;1236.6830
1841.0000;1242.2730
1842.0000;1230.6150
1843.0000;1218.9360
1844.0000;1222.6420
1845.0000;1232.1610
1846.0000;1236.3290
1847.0000;1235.1320
1848.0000;1231.5830
1849.0000;1226.5700
1850.0000;1221.7280
1851.0000;1218.0470
1852.0000;1217.9550
1853.0000;1222.7050
1854.0000;1230.6730
1855.0000;1235.2800
1856.0000;1233.5070
1857.0000;1227.4660
1858.0000;1217.7470
1859.0000;1210.5280
1860.0000;1214.9020
1861.0000;1227.3910
1862.0000;1231.7440
1863.0000;1222.9030
1864.0000;1214.8790
1865.0000;1218.7140
1866.0000;1225.8910
1867.0000;1226.3080
1868.0000;1222.3250
1869.0000;1220.7310
1870.0000;1223.4150
1871.0000;1229.0300
1872.0000;1237.5940
1873.0000;1244.6560
1874.0000;1246.5580
1875.0000;1242.4120
1876.0000;1237.4590
1877.0000;1232.9310
1878.0000;1228.6230
1879.0000;1224.1540
1880.0000;1223.9350
1881.0000;1232.4960
1882.0000;1244.0420
1883.0000;1244.1500
1884.0000;1231.0240
1885.0000;1221.9650
1886.0000;1227.7380
1887.0000;1237.2680
1888.0000;1237.8670
1889.0000;1234.8980
1890.0000;1238.7270
1891.0000;1247.9880
1892.0000;1251.8090
1893.0000;1244.2670
1894.0000;1233.6070
1895.0000;1228.1060
1896.0000;1225.9680
1897.0000;1222.3040
1898.0000;1219.3590
1899.0000;1220.3460
1900.0000;1226.6110
1901.0000;1231.4130
1902.0000;1226.9530
1903.0000;1219.7460
1904.0000;1219.1130
1905.0000;1224.2300
1906.0000;1228.3950
1907.0000;1229.2720
1908.0000;1228.3330
1909.0000;1225.8010
1910.0000;1224.0890
1911.0000;1228.8450
1912.0000;1235.6890
1913.0000;1233.9090
1914.0000;1221.6940
1915.0000;1211.2260
1916.0000;1210.5040
1917.0000;1215.2890
1918.0000;1219.2580
1919.0000;1223.2590
1920.0000;1226.8610
1921.0000;1228.7480
1922.0000;1229.1740
1923.0000;1228.2530
1924.0000;1225.9600
1925.0000;1223.4290
1926.0000;1220.7050
1927.0000;1216.5630
1928.0000;1213.2980
1929.0000;1214.8330
1930.0000;1222.6220
1931.0000;1230.9610
1932.0000;1235.0420
1933.0000;1234.4070
1934.0000;1229.9630
1935.0000;1222.9900
1936.0000;1220.3390
1937.0000;1224.0290
1938.0000;1228.5900
1939.0000;1231.0780
1940.0000;1230.1170
1941.0000;1223.4260
1942.0000;1214.4890
1943.0000;1210.2660
1944.0000;1213.0920
1945.0000;1221.5170
1946.0000;1235.5070
1947.0000;1242.7790
1948.0000;1231.0080
1949.0000;1211.6030
1950.0000;1205.5180
1951.0000;1212.6670
1952.0000;1221.4120
1953.0000;1227.5840
1954.0000;1228.5160
1955.0000;1220.7220
1956.0000;1210.0290
1957.0000;1205.2760
1958.0000;1205.5430
1959.0000;1204.8350
1960.0000;1203.6070
1961.0000;1204.9100
1962.0000;1209.8220
1963.0000;1215.7000
1964.0000;1220.0350
1965.0000;1222.5490
1966.0000;1226.1530
1967.0000;1227.9800
1968.0000;1223.7140
1969.0000;1212.1420
1970.0000;1202.0310
1971.0000;1199.7810
1972.0000;1203.6010
1973.0000;1208.5310
1974.0000;1214.3550
1975.0000;1217.3870
1976.0000;1216.1480
1977.0000;1213.2690
1978.0000;1210.2400
1979.0000;1207.4000
1980.0000;1204.9890
1981.0000;1204.2400
1982.0000;1204.2960
1983.0000;1206.0120
1984.0000;1209.5100
1985.0000;1214.4150
1986.0000;1219.5330
1987.0000;1224.0140
1988.0000;1226.6830
1989.0000;1229.4760
1990.0000;1229.5630
1991.0000;1226.1820
1992.0000;1219.7240
1993.0000;1214.3700
1994.0000;1212.7060
1995.0000;1211.5770
1996.0000;1206.0630
1997.0000;1203.0080
1998.0000;1208.5490
1999.0000;1219.4630
2000.0000;1225.7170
2001.0000;1223.8060
2002.0000;1216.6380
2003.0000;1205.5560
2004.0000;1197.0940
2005.0000;1197.3990
2006.0000;1205.1390
2007.0000;1213.6620
2008.0000;1220.5320
2009.0000;1221.5130
2010.0000;1214.2870
2011.0000;1206.4760
2012.0000;1203.7030
2013.0000;1203.9200
2014.0000;1204.0890
2015.0000;1205.6470
2016.0000;1207.5690
2017.0000;1209.7720
2018.0000;1212.7440
2019.0000;1216.3310
2020.0000;1220.3260
2021.0000;1226.5410
2022.0000;1228.9840
2023.0000;1222.3030
2024.0000;1210.4620
2025.0000;1204.8790
2026.0000;1208.3050
2027.0000;1213.2620
2028.0000;1216.5540
2029.0000;1216.1960
2030.0000;1207.6170
2031.0000;1199.6550
2032.0000;1204.8830
2033.0000;1218.9710
2034.0000;1224.9090
2035.0000;1219.9040
2036.0000;1215.9510
2037.0000;1219.6090
2038.0000;1222.4680
2039.0000;1217.4340
2040.0000;1211.0630
2041.0000;1212.8560
2042.0000;1220.0030
2043.0000;1222.6100
2044.0000;1218.1640
2045.0000;1212.0850
2046.0000;1207.3190
2047.0000;1203.4000
2048.0000;1197.7550
2049.0000;1195.5360
2050.0000;1200.7980
2051.0000;1210.7240
2052.0000;1212.8460
2053.0000;1204.5770
2054.0000;1197.2190
2055.0000;1198.3430
2056.0000;1200.8000
2057.0000;1196.6020
2058.0000;1191.9420
2059.0000;1192.7970
2060.0000;1198.5750
2061.0000;1204.1300
2062.0000;1207.1430
2063.0000;1207.6840
2064.0000;1205.2820
2065.0000;1202.3000
2066.0000;1202.3340
2067.0000;1204.3880
2068.0000;1206.8490
2069.0000;1209.3610
2070.0000;1211.6540
2071.0000;1212.8140
2072.0000;1210.0040
2073.0000;1201.2580
2074.0000;1194.8700
2075.0000;1199.7570
2076.0000;1208.2130
2077.0000;1206.7100
2078.0000;1197.9650
2079.0000;1192.4160
2080.0000;1192.6880
2081.0000;1194.6320
2082.0000;1196.2430
2083.0000;1199.5470
2084.0000;1206.1430
2085.0000;1211.1810
2086.0000;1210.3180
2087.0000;1204.4470
2088.0000;1200.4240
2089.0000;1199.8880
2090.0000;1202.2430
2091.0000;1207.2460
2092.0000;1212.2200
2093.0000;1214.8130
2094.0000;1213.7090
2095.0000;1208.9140
2096.0000;1202.2490
2097.0000;1199.4140
2098.0000;1201.4590
2099.0000;1203.7140
2100.0000;1204.3180
2101.0000;1206.5270
2102.0000;1212.6100
2103.0000;1217.1380
2104.0000;1215.1580
2105.0000;1209.6370
2106.0000;1209.9250
2107.0000;1214.1430
2108.0000;1211.6940
2109.0000;1200.5830
2110.0000;1194.9310
2111.0000;1203.8790
2112.0000;1214.9000
2113.0000;1214.5810
2114.0000;1208.9270
2115.0000;1206.2460
2116.0000;1206.5280
2117.0000;1208.7070
2118.0000;1212.2900
2119.0000;1213.9750
2120.0000;1211.7630
2121.0000;1209.1750
2122.0000;1210.4100
2123.0000;1210.7940
2124.0000;1203.5900
2125.0000;1194.9070
2126.0000;1195.7540
2127.0000;1205.5160
2128.0000;1211.4140
2129.0000;1208.0520
2130.0000;1204.1540
2131.0000;1205.5300
2132.0000;1208.0200
2133.0000;1208.4650
2134.0000;1207.7820
2135.0000;1207.0170
2136.0000;1206.6260
2137.0000;1208.4440
2138.0000;1211.9870
2139.0000;1211.8040
2140.0000;1205.1710
2141.0000;1198.3850
2142.0000;1195.6820
2143.0000;1198.3600
2144.0000;1207.6110
2145.0000;1218.2420
2146.0000;1219.2050
2147.0000;1209.6110
2148.0000;1202.4220
2149.0000;1201.6160
2150.0000;1199.9260
2151.0000;1193.2680
2152.0000;1188.2000
2153.0000;1189.3340
2154.0000;1193.2970
2155.0000;1190.9910
2156.0000;1186.3260
2157.0000;1187.9290
2158.0000;1196.3410
2159.0000;1204.1850
2160.0000;1207.3250
2161.0000;1206.6060
2162.0000;1202.5120
2163.0000;1197.5410
2164.0000;1197.9020
2165.0000;1199.5830
2166.0000;1194.8060
2167.0000;1186.5330
2168.0000;1184.2660
2169.0000;1189.6160
2170.0000;1193.7560
2171.0000;1192.0890
2172.0000;1188.9790
2173.0000;1187.4340
2174.0000;1186.0510
2175.0000;1182.8370
2176.0000;1180.4780
2177.0000;1181.7920
2178.0000;1186.3990
2179.0000;1191.1410
2180.0000;1193.6890
2181.0000;1189.6980
2182.0000;1176.8570
2183.0000;1169.7750
2184.0000;1183.0080
2185.0000;1199.7150
2186.0000;1198.3400
2187.0000;1186.8570
2188.0000;1184.8670
2189.0000;1190.1200
2190.0000;1186.7260
2191.0000;1172.7320
2192.0000;1165.5820
2193.0000;1174.0980
2194.0000;1184.4300
2195.0000;1184.1840
2196.0000;1180.3060
2197.0000;1180.3210
2198.0000;1182.3490
2199.0000;1184.6210
2200.0000;1186.8280
2201.0000;1190.0670
2202.0000;1193.3100
2203.0000;1192.6900
2204.0000;1186.4770
2205.0000;1178.3580
2206.0000;1169.9640
2207.0000;1167.2580
2208.0000;1174.4500
2209.0000;1187.5180
2210.0000;1194.0840
2211.0000;1194.3530
2212.0000;1197.8980
2213.0000;1203.9930
2214.0000;1204.5030
2215.0000;1196.0250
2216.0000;1188.5330
2217.0000;1189.7890
2218.0000;1193.6500
2219.0000;1193.4680
2220.0000;1190.1930
2221.0000;1183.5970
2222.0000;1175.8650
2223.0000;1169.9040
2224.0000;1168.0440
2225.0000;1168.1330
2226.0000;1169.6800
2227.0000;1172.6200
2228.0000;1176.0430
2229.0000;1177.9140
2230.0000;1175.8940
2231.0000;1173.1190
2232.0000;1176.1130
2233.0000;1181.0170
2234.0000;1180.1600
2235.0000;1173.6480
2236.0000;1167.3470
2237.0000;1163.3960
2238.0000;1161.7670
2239.0000;1162.6340
2240.0000;1167.6410
2241.0000;1176.3700
2242.0000;1186.2770
2243.0000;1197.4270
2244.0000;1203.3110
2245.0000;1201.2830
2246.0000;1191.2540
2247.0000;1181.2400
2248.0000;1174.9910
2249.0000;1175.2970
2250.0000;1183.7870
2251.0000;1193.9400
2252.0000;1200.9320
2253.0000;1201.2930
2254.0000;1191.7640
2255.0000;1180.2570
2256.0000;1180.9490
2257.0000;1187.3510
2258.0000;1183.6600
2259.0000;1172.7010
2260.0000;1165.5640
2261.0000;1165.4910
2262.0000;1167.3090
2263.0000;1169.2510
2264.0000;1175.1700
2265.0000;1187.0090
2266.0000;1195.4000
2267.0000;1192.4720
2268.0000;1183.4160
2269.0000;1180.1170
2270.0000;1180.7660
2271.0000;1179.7620
2272.0000;1179.0470
2273.0000;1184.6480
2274.0000;1195.8070
2275.0000;1200.5420
2276.0000;1193.0380
2277.0000;1186.1460
2278.0000;1189.9970
2279.0000;1196.2830
2280.0000;1197.6520
2281.0000;1195.2890
2282.0000;1190.2360
2283.0000;1184.2750
2284.0000;1182.2040
2285.0000;1183.6920
2286.0000;1180.1130
2287.0000;1171.7190
2288.0000;1170.4630
2289.0000;1181.2340
2290.0000;1191.5960
2291.0000;1192.2720
2292.0000;1190.7670
2293.0000;1196.5950
2294.0000;1201.1830
2295.0000;1197.6090
2296.0000;1188.9040
2297.0000;1182.9600
2298.0000;1180.8790
2299.0000;1179.4890
2300.0000;1179.3510
2301.0000;1181.0650
2302.0000;1184.3190
2303.0000;1187.0590
2304.0000;1187.4860
2305.0000;1187.7710
2306.0000;1190.5430
2307.0000;1193.0910
2308.0000;1193.7160
2309.0000;1192.9230
2310.0000;1195.0000
2311.0000;1195.8320
2312.0000;1185.5140
2313.0000;1167.4330
2314.0000;1161.0620
2315.0000;1171.6930
2316.0000;1181.9200
2317.0000;1181.8060
2318.0000;1181.6000
2319.0000;1187.1000
2320.0000;1194.0520
2321.0000;1199.8100
2322.0000;1204.5230
2323.0000;1213.0010
2324.0000;1219.1060
2325.0000;1217.6890
2326.0000;1210.2630
2327.0000;1209.0940
2328.0000;1214.9460
2329.0000;1216.4660
2330.0000;1209.9450
2331.0000;1202.9700
2332.0000;1199.4820
2333.0000;1196.1040
2334.0000;1189.5920
2335.0000;1184.3000
2336.0000;1180.1340
2337.0000;1180.9090
2338.0000;1187.9800
2339.0000;1197.6260
2340.0000;1202.1620
2341.0000;1199.4650
2342.0000;1193.9020
2343.0000;1186.4980
2344.0000;1180.4290
2345.0000;1177.9790
2346.0000;1175.3540
2347.0000;1170.1130
2348.0000;1169.6190
2349.0000;1177.6400
2350.0000;1188.5000
2351.0000;1193.8290
2352.0000;1196.7570
2353.0000;1205.8960
2354.0000;1213.8010
2355.0000;1214.0160
2356.0000;1206.3260
2357.0000;1200.1380
2358.0000;1197.4470
2359.0000;1195.8400
2360.0000;1195.3050
2361.0000;1194.3960
2362.0000;1192.1050
2363.0000;1189.3800
2364.0000;1185.6600
2365.0000;1186.8830
2366.0000;1200.1580
2367.0000;1210.5350
2368.0000;1199.2320
2369.0000;1179.3670
2370.0000;1178.0170
2371.0000;1190.1600
2372.0000;1193.7260
2373.0000;1188.5880
2374.0000;1185.0030
2375.0000;1185.7060
2376.0000;1192.1920
2377.0000;1204.3140
2378.0000;1212.4740
2379.0000;1210.6050
2380.0000;1204.4970
2381.0000;1200.4800
2382.0000;1196.2750
2383.0000;1190.8220
2384.0000;1186.8040
2385.0000;1183.3740
2386.0000;1183.6860
2387.0000;1189.4390
2388.0000;1197.5320
2389.0000;1198.1570
2390.0000;1191.4620
2391.0000;1190.5490
2392.0000;1196.8300
2393.0000;1198.5760
2394.0000;1192.1230
2395.0000;1190.5560
2396.0000;1201.3060
2397.0000;1207.1240
2398.0000;1193.7080
2399.0000;1179.7420
2400.0000;1183.2080
2401.0000;1193.7110
2402.0000;1197.2420
2403.0000;1195.1340
2404.0000;1189.5560
2405.0000;1182.1420
2406.0000;1177.0850
2407.0000;1176.9510
2408.0000;1182.0810
2409.0000;1191.0130
2410.0000;1195.0370
2411.0000;1190.5670
2412.0000;1185.4730
2413.0000;1183.5940
2414.0000;1184.1230
2415.0000;1187.1950
2416.0000;1190.9140
2417.0000;1192.7150
2418.0000;1194.1000
2419.0000;1197.2820
2420.0000;1200.6800
2421.0000;1204.9060
2422.0000;1207.2940
2423.0000;1206.3790
2424.0000;1202.6420
2425.0000;1200.0260
2426.0000;1199.6010
2427.0000;1201.3750
2428.0000;1205.0140
2429.0000;1207.4830
2430.0000;1207.1450
2431.0000;1202.3970
2432.0000;1193.2610
2433.0000;1184.6050
2434.0000;1180.7280
2435.0000;1179.8850
2436.0000;1178.9480
2437.0000;1179.9080
2438.0000;1180.9750
2439.0000;1183.8580
2440.0000;1190.6070
2441.0000;1196.2730
2442.0000;1193.3230
2443.0000;1185.3710
2444.0000;1184.8890
2445.0000;1191.8410
2446.0000;1199.8910
2447.0000;1205.6600
2448.0000;1204.4680
2449.0000;1195.8270
2450.0000;1192.6840
2451.0000;1200.7540
2452.0000;1209.9430
2453.0000;1215.1310
2454.0000;1216.6340
2455.0000;1214.9860
2456.0000;1210.0220
2457.0000;1203.9350
2458.0000;1198.8000
2459.0000;1195.8370
2460.0000;1197.5710
2461.0000;1203.9020
2462.0000;1211.1570
2463.0000;1211.9660
2464.0000;1206.5200
2465.0000;1200.2260
2466.0000;1193.9220
2467.0000;1186.7190
2468.0000;1181.1630
2469.0000;1178.1670
2470.0000;1179.4820
2471.0000;1184.5420
2472.0000;1191.9700
2473.0000;1196.0490
2474.0000;1193.4900
2475.0000;1187.1410
2476.0000;1179.2570
2477.0000;1176.6910
2478.0000;1185.3280
2479.0000;1195.5950
2480.0000;1196.4530
2481.0000;1194.7900
2482.0000;1201.1140
2483.0000;1206.8880
2484.0000;1204.3060
2485.0000;1196.5640
2486.0000;1192.2830
2487.0000;1191.1700
2488.0000;1188.9130
2489.0000;1187.8540
2490.0000;1191.3590
2491.0000;1198.4780
2492.0000;1203.5370
2493.0000;1204.1450
2494.0000;1201.8190
2495.0000;1197.1380
2496.0000;1193.1030
2497.0000;1191.8310
2498.0000;1193.1740
2499.0000;1196.9650
2500.0000;1198.8340
2501.0000;1195.1120
2502.0000;1192.2830
2503.0000;1195.5200
2504.0000;1201.1570
2505.0000;1206.1410
2506.0000;1208.6840
2507.0000;1206.7920
2508.0000;1204.2610
2509.0000;1209.4860
2510.0000;1217.4840
2511.0000;1221.9450
2512.0000;1221.0420
2513.0000;1216.4050
2514.0000;1208.3230
2515.0000;1198.4900
2516.0000;1191.3890
2517.0000;1194.1950
2518.0000;1206.2710
2519.0000;1213.0930
2520.0000;1210.4380
2521.0000;1206.7170
2522.0000;1204.4800
2523.0000;1200.6490
2524.0000;1195.3390
2525.0000;1194.6880
2526.0000;1201.7560
2527.0000;1206.2980
2528.0000;1200.7210
2529.0000;1195.0380
2530.0000;1196.7250
2531.0000;1200.3410
2532.0000;1200.4580
2533.0000;1200.8710
2534.0000;1206.0380
2535.0000;1209.5870
2536.0000;1205.4140
2537.0000;1197.8720
2538.0000;1195.7900
2539.0000;1196.8980
2540.0000;1195.3420
2541.0000;1192.8930
2542.0000;1191.0220
2543.0000;1190.7940
2544.0000;1192.8600
2545.0000;1195.9580
2546.0000;1195.2200
2547.0000;1191.2830
2548.0000;1192.6940
2549.0000;1199.0880
2550.0000;1197.9530
2551.0000;1187.3960
2552.0000;1181.6220
2553.0000;1185.2850
2554.0000;1187.0870
2555.0000;1182.8860
2556.0000;1183.2220
2557.0000;1192.6340
2558.0000;1197.5680
2559.0000;1190.1510
2560.0000;1180.3430
2561.0000;1175.7100
2562.0000;1176.9710
2563.0000;1185.0220
2564.0000;1193.8890
2565.0000;1195.6400
2566.0000;1196.5520
2567.0000;1207.0340
2568.0000;1215.6260
2569.0000;1213.6920
2570.0000;1204.3570
2571.0000;1196.1850
2572.0000;1191.4420
2573.0000;1191.5820
2574.0000;1197.2030
2575.0000;1203.3010
2576.0000;1208.7710
2577.0000;1214.0980
2578.0000;1215.8690
2579.0000;1212.8110
2580.0000;1204.8800
2581.0000;1195.4290
2582.0000;1188.7220
2583.0000;1190.8360
2584.0000;1201.0450
2585.0000;1206.1270
2586.0000;1203.0220
2587.0000;1201.6390
2588.0000;1203.4980
2589.0000;1202.9550
2590.0000;1199.1870
2591.0000;1196.8250
2592.0000;1197.7090
2593.0000;1195.8710
2594.0000;1189.4620
2595.0000;1189.7320
2596.0000;1201.6410
2597.0000;1208.3780
2598.0000;1199.8510
2599.0000;1194.0790
2600.0000;1203.0090
2601.0000;1210.4320
2602.0000;1204.6380
2603.0000;1197.1010
2604.0000;1197.5290
2605.0000;1199.4770
2606.0000;1196.8490
2607.0000;1195.4610
2608.0000;1199.4580
2609.0000;1205.6530
2610.0000;1212.1980
2611.0000;1213.0810
2612.0000;1200.7420
2613.0000;1188.9180
2614.0000;1199.7380
2615.0000;1217.4200
2616.0000;1217.1740
2617.0000;1206.5640
2618.0000;1201.7020
2619.0000;1200.0450
2620.0000;1196.8200
2621.0000;1194.7920
2622.0000;1195.6460
2623.0000;1198.5210
2624.0000;1198.6690
2625.0000;1197.7220
2626.0000;1200.6080
2627.0000;1205.9160
2628.0000;1209.4640
2629.0000;1210.3470
2630.0000;1211.1240
2631.0000;1212.0990
2632.0000;1215.9650
2633.0000;1221.4650
2634.0000;1224.6770
2635.0000;1223.5130
2636.0000;1217.1990
2637.0000;1207.8190
2638.0000;1203.0380
2639.0000;1204.9840
2640.0000;1205.4520
2641.0000;1202.8940
2642.0000;1199.7300
2643.0000;1197.1140
2644.0000;1196.9790
2645.0000;1199.8550
2646.0000;1202.6150
2647.0000;1203.6600
2648.0000;1205.1750
2649.0000;1207.1000
2650.0000;1205.0360
2651.0000;1197.9200
2652.0000;1196.1620
2653.0000;1204.1680
2654.0000;1210.8240
2655.0000;1210.5510
2656.0000;1205.6860
2657.0000;1197.6930
2658.0000;1193.8070
2659.0000;1199.0210
2660.0000;1205.2920
2661.0000;1206.8600
2662.0000;1205.7850
2663.0000;1202.7980
2664.0000;1201.7880
2665.0000;1206.2880
2666.0000;1209.2690
2667.0000;1205.7630
2668.0000;1204.1200
2669.0000;1210.5640
2670.0000;1214.9740
2671.0000;1209.7300
2672.0000;1206.3980
2673.0000;1214.9730
2674.0000;1219.7640
2675.0000;1208.0970
2676.0000;1194.1290
2677.0000;1188.1830
2678.0000;1191.6920
2679.0000;1204.7360
2680.0000;1215.2600
2681.0000;1208.2190
2682.0000;1199.3620
2683.0000;1204.9720
2684.0000;1213.0010
2685.0000;1212.7900
2686.0000;1209.8090
2687.0000;1209.3860
2688.0000;1209.7090
2689.0000;1210.0550
2690.0000;1210.8260
2691.0000;1213.2000
2692.0000;1212.2960
2693.0000;1203.0180
2694.0000;1193.7710
2695.0000;1193.7840
2696.0000;1195.5110
2697.0000;1186.8540
2698.0000;1178.1160
2699.0000;1176.2730
2700.0000;1182.1400
2701.0000;1193.9520
2702.0000;1204.5360
2703.0000;1203.7160
2704.0000;1197.8850
2705.0000;1199.9500
2706.0000;1202.6940
2707.0000;1199.6850
2708.0000;1195.8550
2709.0000;1196.0400
2710.0000;1199.3850
2711.0000;1204.5670
2712.0000;1208.6600
2713.0000;1208.5320
2714.0000;1205.7610
2715.0000;1204.1590
2716.0000;1204.0310
2717.0000;1207.2810
2718.0000;1209.2670
2719.0000;1203.7340
2720.0000;1197.2030
2721.0000;1196.1700
2722.0000;1201.2610
2723.0000;1212.3860
2724.0000;1221.5180
2725.0000;1219.8940
2726.0000;1211.5020
2727.0000;1204.5020
2728.0000;1200.7560
2729.0000;1204.2350
2730.0000;1207.0930
2731.0000;1195.7530
2732.0000;1186.6940
2733.0000;1197.4280
2734.0000;1212.8060
2735.0000;1215.7380
2736.0000;1211.8670
2737.0000;1208.3940
2738.0000;1205.8330
2739.0000;1207.6060
2740.0000;1210.4650
2741.0000;1211.0760
2742.0000;1208.1980
2743.0000;1199.7570
2744.0000;1195.0170
2745.0000;1204.1600
2746.0000;1210.7030
2747.0000;1197.2570
2748.0000;1184.7830
2749.0000;1190.7400
2750.0000;1201.3880
2751.0000;1203.6280
2752.0000;1202.5120
2753.0000;1200.7150
2754.0000;1199.7880
2755.0000;1202.1820
2756.0000;1205.8920
2757.0000;1209.2050
2758.0000;1209.7950
2759.0000;1205.7940
2760.0000;1204.3210
2761.0000;1210.7600
2762.0000;1217.5000
2763.0000;1218.9460
2764.0000;1219.9520
2765.0000;1223.2950
2766.0000;1222.9030
2767.0000;1216.3700
2768.0000;1211.2780
2769.0000;1212.5320
2770.0000;1216.5420
2771.0000;1220.8490
2772.0000;1220.4890
2773.0000;1213.0600
2774.0000;1208.7720
2775.0000;1212.8760
2776.0000;1218.0640
2777.0000;1220.8320
2778.0000;1217.0210
2779.0000;1206.3790
2780.0000;1207.0370
2781.0000;1223.1200
2782.0000;1232.4280
2783.0000;1226.8210
2784.0000;1219.8570
2785.0000;1215.4350
2786.0000;1213.4270
2787.0000;1214.8900
2788.0000;1218.3790
2789.0000;1221.8440
2790.0000;1218.4030
2791.0000;1209.9030
2792.0000;1211.0710
2793.0000;1221.5340
2794.0000;1224.4670
2795.0000;1217.7700
2796.0000;1206.6050
2797.0000;1196.7830
2798.0000;1199.4700
2799.0000;1213.1200
2800.0000;1221.1730
2801.0000;1223.5580
2802.0000;1230.2010
2803.0000;1235.7200
2804.0000;1233.7560
2805.0000;1225.6300
2806.0000;1218.7500
2807.0000;1215.7880
2808.0000;1218.7500
2809.0000;1224.6090
2810.0000;1224.1530
2811.0000;1221.4680
2812.0000;1224.3660
2813.0000;1227.0070
2814.0000;1221.4530
2815.0000;1214.9470
2816.0000;1217.0200
2817.0000;1221.2280
2818.0000;1218.7950
2819.0000;1215.9470
2820.0000;1217.9860
2821.0000;1221.8620
2822.0000;1224.7560
2823.0000;1226.0580
2824.0000;1225.4720
2825.0000;1221.8180
2826.0000;1214.7540
2827.0000;1216.5520
2828.0000;1234.2650
2829.0000;1245.0250
2830.0000;1235.6370
2831.0000;1229.3040
2832.0000;1236.8160
2833.0000;1236.5230
2834.0000;1222.9960
2835.0000;1221.5940
2836.0000;1238.8110
2837.0000;1249.3810
2838.0000;1245.5060
2839.0000;1244.1150
2840.0000;1246.0000
2841.0000;1239.3130
2842.0000;1225.2940
2843.0000;1213.5040
2844.0000;1209.1390
2845.0000;1212.2570
2846.0000;1221.1980
2847.0000;1224.5910
2848.0000;1222.6740
2849.0000;1222.0290
2850.0000;1222.8650
2851.0000;1226.7730
2852.0000;1231.2050
2853.0000;1233.0860
2854.0000;1231.5080
2855.0000;1226.4740
2856.0000;1223.9000
2857.0000;1233.8490
2858.0000;1243.1440
2859.0000;1236.5640
2860.0000;1226.4220
2861.0000;1225.6560
2862.0000;1228.5160
2863.0000;1230.1960
2864.0000;1233.7650
2865.0000;1240.1550
2866.0000;1237.7660
2867.0000;1220.7490
2868.0000;1216.1480
2869.0000;1237.0920
2870.0000;1254.5400
2871.0000;1253.9140
2872.0000;1248.1550
2873.0000;1241.1000
2874.0000;1236.4520
2875.0000;1236.5080
2876.0000;1238.5060
2877.0000;1240.7220
2878.0000;1235.7980
2879.0000;1227.7820
2880.0000;1232.6610
2881.0000;1246.4940
2882.0000;1250.6040
2883.0000;1245.5680
2884.0000;1239.9920
2885.0000;1235.8260
2886.0000;1236.6570
2887.0000;1241.2150
2888.0000;1243.7420
2889.0000;1246.9530
2890.0000;1254.7090
2891.0000;1260.2310
2892.0000;1258.1730
2893.0000;1256.3390
2894.0000;1263.0010
2895.0000;1267.2150
2896.0000;1262.3450
2897.0000;1256.9480
2898.0000;1256.2150
2899.0000;1259.9440
2900.0000;1267.6760
2901.0000;1272.1940
2902.0000;1270.5730
2903.0000;1271.1420
2904.0000;1274.0070
2905.0000;1270.1420
2906.0000;1261.3560
2907.0000;1259.2810
2908.0000;1264.1450
2909.0000;1265.8970
2910.0000;1264.3370
2911.0000;1261.8580
2912.0000;1258.2890
2913.0000;1252.0290
2914.0000;1249.2680
2915.0000;1257.5750
2916.0000;1266.7670
2917.0000;1262.1680
2918.0000;1256.0990
2919.0000;1262.1740
2920.0000;1265.0800
2921.0000;1253.9320
2922.0000;1246.9590
2923.0000;1254.8750
2924.0000;1263.7100
2925.0000;1265.5860
2926.0000;1261.6540
2927.0000;1253.4340
2928.0000;1252.4970
2929.0000;1261.3800
2930.0000;1270.3750
2931.0000;1275.6960
2932.0000;1276.9860
2933.0000;1273.5460
2934.0000;1271.2420
2935.0000;1268.4910
2936.0000;1260.2870
2937.0000;1253.8530
2938.0000;1258.2830
2939.0000;1268.2560
2940.0000;1275.0540
2941.0000;1274.8200
2942.0000;1264.9370
2943.0000;1253.7440
2944.0000;1249.6630
2945.0000;1250.8090
2946.0000;1255.3390
2947.0000;1261.6740
2948.0000;1267.1940
2949.0000;1270.1100
2950.0000;1269.6340
2951.0000;1271.5510
2952.0000;1274.9580
2953.0000;1272.0350
2954.0000;1264.6070
2955.0000;1262.4980
2956.0000;1265.6560
2957.0000;1267.7130
2958.0000;1269.9360
2959.0000;1275.4870
2960.0000;1277.5960
2961.0000;1268.8710
2962.0000;1259.0220
2963.0000;1259.3670
2964.0000;1263.2450
2965.0000;1264.7030
2966.0000;1265.3940
2967.0000;1265.1100
2968.0000;1264.2030
2969.0000;1263.4430
2970.0000;1265.3550
2971.0000;1270.7920
2972.0000;1280.1780
2973.0000;1289.7280
2974.0000;1291.2130
2975.0000;1284.3620
2976.0000;1279.0520
2977.0000;1276.1560
2978.0000;1275.9170
2979.0000;1276.1010
2980.0000;1268.3040
2981.0000;1266.3360
2982.0000;1283.7940
2983.0000;1298.4850
2984.0000;1293.1660
2985.0000;1284.0630
2986.0000;1281.8890
2987.0000;1286.3180
2988.0000;1296.6100
2989.0000;1296.9640
2990.0000;1285.8950
2991.0000;1286.7050
2992.0000;1297.3610
2993.0000;1295.1970
2994.0000;1284.7670
2995.0000;1285.2220
2996.0000;1292.5520
2997.0000;1295.6940
2998.0000;1298.5100
2999.0000;1306.8900
3000.0000;1310.1650
3001.0000;1301.2300
3002.0000;1290.9600
3003.0000;1288.0830
3004.0000;1290.1150
3005.0000;1295.9640
3006.0000;1303.5690
3007.0000;1309.1910
3008.0000;1307.1890
3009.0000;1297.7920
3010.0000;1289.4680
3011.0000;1287.1550
3012.0000;1295.4500
3013.0000;1307.3270
3014.0000;1307.9060
3015.0000;1301.6190
3016.0000;1296.7370
3017.0000;1294.7960
3018.0000;1298.4660
3019.0000;1302.1300
3020.0000;1301.5060
3021.0000;1297.7860
3022.0000;1292.4550
3023.0000;1293.4500
3024.0000;1301.1020
3025.0000;1304.5740
3026.0000;1302.3490
3027.0000;1299.3650
3028.0000;1296.6440
3029.0000;1295.3250
3030.0000;1297.7900
3031.0000;1305.3170
3032.0000;1313.9480
3033.0000;1320.1640
3034.0000;1317.9520
3035.0000;1305.4490
3036.0000;1301.4520
3037.0000;1314.0900
3038.0000;1315.8970
3039.0000;1301.8740
3040.0000;1294.8580
3041.0000;1298.9740
3042.0000;1305.5460
3043.0000;1312.0580
3044.0000;1312.9720
3045.0000;1310.6010
3046.0000;1312.0080
3047.0000;1314.8860
3048.0000;1318.4870
3049.0000;1319.2650
3050.0000;1315.2260
3051.0000;1311.8210
3052.0000;1311.7700
3053.0000;1310.8860
3054.0000;1308.1610
3055.0000;1301.5880
3056.0000;1295.5940
3057.0000;1299.8650
3058.0000;1311.1670
3059.0000;1319.2650
3060.0000;1320.1190
3061.0000;1310.9110
3062.0000;1305.6220
3063.0000;1318.8820
3064.0000;1331.9210
3065.0000;1332.1650
3066.0000;1329.7590
3067.0000;1327.6490
3068.0000;1320.8970
3069.0000;1313.5660
3070.0000;1321.7740
3071.0000;1337.6560
3072.0000;1336.3960
3073.0000;1323.9000
3074.0000;1317.0540
3075.0000;1315.1910
3076.0000;1317.9080
3077.0000;1324.2160
3078.0000;1331.0530
3079.0000;1337.5340
3080.0000;1341.4000
3081.0000;1339.2140
3082.0000;1332.0840
3083.0000;1331.8840
3084.0000;1337.8790
3085.0000;1339.6070
3086.0000;1339.0920
3087.0000;1342.3080
3088.0000;1344.2260
3089.0000;1340.3620
3090.0000;1337.2330
3091.0000;1339.8330
3092.0000;1342.5350
3093.0000;1342.8490
3094.0000;1343.5980
3095.0000;1344.7210
3096.0000;1343.2830
3097.0000;1342.9760
3098.0000;1355.6770
3099.0000;1370.5460
3100.0000;1369.5740
3101.0000;1362.2920
3102.0000;1363.9780
3103.0000;1364.8690
3104.0000;1360.4480
3105.0000;1356.2550
3106.0000;1355.3900
3107.0000;1361.0480
3108.0000;1370.0890
3109.0000;1369.4270
3110.0000;1361.3180
3111.0000;1358.0060
3112.0000;1360.2130
3113.0000;1369.2400
3114.0000;1371.5660
3115.0000;1354.6690
3116.0000;1342.4690
3117.0000;1349.3310
3118.0000;1354.5860
3119.0000;1353.2130
3120.0000;1356.7270
3121.0000;1362.8230
3122.0000;1360.6970
3123.0000;1354.6290
3124.0000;1355.8580
3125.0000;1359.7780
3126.0000;1360.5100
3127.0000;1360.7140
3128.0000;1361.6210
3129.0000;1363.6770
3130.0000;1366.2680
3131.0000;1364.4220
3132.0000;1359.8550
3133.0000;1364.8990
3134.0000;1374.2060
3135.0000;1372.7580
3136.0000;1367.6210
3137.0000;1370.3540
3138.0000;1375.5630
3139.0000;1379.4320
3140.0000;1384.6520
3141.0000;1390.7760
3142.0000;1395.8390
3143.0000;1397.2810
3144.0000;1394.2170
3145.0000;1388.8820
3146.0000;1388.5660
3147.0000;1390.8770
3148.0000;1391.3590
3149.0000;1388.6500
3150.0000;1381.5890
3151.0000;1375.5650
3152.0000;1373.8240
3153.0000;1374.1270
3154.0000;1375.7090
3155.0000;1375.6550
3156.0000;1374.1680
3157.0000;1372.7450
3158.0000;1372.0010
3159.0000;1371.4950
3160.0000;1374.7320
3161.0000;1383.1870
3162.0000;1391.7880
3163.0000;1396.5880
3164.0000;1394.2080
3165.0000;1385.8810
3166.0000;1381.3790
3167.0000;1383.0080
3168.0000;1388.6800
3169.0000;1395.0040
3170.0000;1396.0840
3171.0000;1398.0460
3172.0000;1405.3950
3173.0000;1408.9770
3174.0000;1406.0350
3175.0000;1405.6630
3176.0000;1407.6630
3177.0000;1405.1440
3178.0000;1400.3680
3179.0000;1397.8720
3180.0000;1398.3670
3181.0000;1400.8910
3182.0000;1407.0450
3183.0000;1415.5820
3184.0000;1416.4540
3185.0000;1408.2110
3186.0000;1405.8670
3187.0000;1410.0310
3188.0000;1412.2370
3189.0000;1415.7140
3190.0000;1425.3660
3191.0000;1431.8050
3192.0000;1428.4490
3193.0000;1431.2190
3194.0000;1444.1690
3195.0000;1441.3070
3196.0000;1424.8780
3197.0000;1429.1940
3198.0000;1443.5430
3199.0000;1437.5840
3200.0000;1425.3440
3201.0000;1423.1560
3202.0000;1425.3230
3203.0000;1429.1800
3204.0000;1435.1360
3205.0000;1441.0120
3206.0000;1444.1330
3207.0000;1443.6650
3208.0000;1444.8160
3209.0000;1443.8110
3210.0000;1437.0100
3211.0000;1434.2820
3212.0000;1442.1200
3213.0000;1451.1130
3214.0000;1456.1070
3215.0000;1458.4360
3216.0000;1456.2360
3217.0000;1450.0900
3218.0000;1444.1280
3219.0000;1445.5560
3220.0000;1447.7510
3221.0000;1444.4010
3222.0000;1439.6430
3223.0000;1435.7920
3224.0000;1435.1770
3225.0000;1438.1070
3226.0000;1439.8340
3227.0000;1442.6280
3228.0000;1452.0440
3229.0000;1457.2850
3230.0000;1450.6690
3231.0000;1449.4000
3232.0000;1459.4700
3233.0000;1460.4980
3234.0000;1452.1090
3235.0000;1449.1890
3236.0000;1454.7030
3237.0000;1470.9840
3238.0000;1482.3530
3239.0000;1474.2250
3240.0000;1467.6000
3241.0000;1472.4020
3242.0000;1473.4650
3243.0000;1469.5290
3244.0000;1466.1860
3245.0000;1467.5460
3246.0000;1481.2400
3247.0000;1486.5610
3248.0000;1466.9210
3249.0000;1454.0050
3250.0000;1461.7680
3251.0000;1467.8130
3252.0000;1470.2190
3253.0000;1477.2530
3254.0000;1486.5130
3255.0000;1496.8020
3256.0000;1505.8520
3257.0000;1513.2380
3258.0000;1518.8350
3259.0000;1521.9600
3260.0000;1521.1430
3261.0000;1517.1980
3262.0000;1516.3560
3263.0000;1516.2720
3264.0000;1513.6120
3265.0000;1507.5730
3266.0000;1498.8060
3267.0000;1504.1440
3268.0000;1522.1980
3269.0000;1521.0830
3270.0000;1506.3290
3271.0000;1508.3310
3272.0000;1519.4290
3273.0000;1529.2180
3274.0000;1533.4110
3275.0000;1529.2310
3276.0000;1529.5580
3277.0000;1535.2480
3278.0000;1534.9230
3279.0000;1531.2000
3280.0000;1532.2660
3281.0000;1535.0430
3282.0000;1536.9310
3283.0000;1536.0400
3284.0000;1532.9840
3285.0000;1538.2550
3286.0000;1547.5000
3287.0000;1542.5800
3288.0000;1535.4280
3289.0000;1546.8500
3290.0000;1552.4130
3291.0000;1539.1470
3292.0000;1537.4660
3293.0000;1551.4730
3294.0000;1554.7820
3295.0000;1547.8330
3296.0000;1541.5460
3297.0000;1537.8800
3298.0000;1539.6200
3299.0000;1545.1750
3300.0000;1551.5740
3301.0000;1552.2490
3302.0000;1548.8410
3303.0000;1553.9160
3304.0000;1562.2940
3305.0000;1566.4800
3306.0000;1566.4260
3307.0000;1562.7960
3308.0000;1559.5130
3309.0000;1558.5710
3310.0000;1559.4500
3311.0000;1560.5000
3312.0000;1555.0090
3313.0000;1557.4150
3314.0000;1578.0630
3315.0000;1583.8060
3316.0000;1565.6000
3317.0000;1559.4330
3318.0000;1566.5780
3319.0000;1571.3330
3320.0000;1573.1980
3321.0000;1570.0580
3322.0000;1568.9520
3323.0000;1573.7510
3324.0000;1577.8400
3325.0000;1580.2880
3326.0000;1584.8290
3327.0000;1588.8970
3328.0000;1590.1040
3329.0000;1593.0540
3330.0000;1600.6640
3331.0000;1606.9210
3332.0000;1608.3400
3333.0000;1604.9130
3334.0000;1599.4720
3335.0000;1599.0510
3336.0000;1602.1000
3337.0000;1606.4660
3338.0000;1605.0830
3339.0000;1599.3040
3340.0000;1609.3400
3341.0000;1626.2940
3342.0000;1631.1750
3343.0000;1623.3180
3344.0000;1607.4460
3345.0000;1608.2590
3346.0000;1629.3580
3347.0000;1624.1630
3348.0000;1602.4350
3349.0000;1607.6100
3350.0000;1622.1270
3351.0000;1625.0130
3352.0000;1626.5070
3353.0000;1630.0700
3354.0000;1641.3360
3355.0000;1652.5190
3356.0000;1646.3730
3357.0000;1637.7130
3358.0000;1646.7090
3359.0000;1654.7060
3360.0000;1654.3110
3361.0000;1661.6360
3362.0000;1671.2000
3363.0000;1666.3110
3364.0000;1656.2530
3365.0000;1655.1960
3366.0000;1662.2120
3367.0000;1674.4370
3368.0000;1679.0940
3369.0000;1675.6990
3370.0000;1677.5990
3371.0000;1681.1080
3372.0000;1683.3410
3373.0000;1684.8080
3374.0000;1685.6190
3375.0000;1685.3850
3376.0000;1686.8400
3377.0000;1697.8200
3378.0000;1707.6760
3379.0000;1705.4600
3380.0000;1704.3520
3381.0000;1708.8170
3382.0000;1702.9980
3383.0000;1690.3820
3384.0000;1684.9260
3385.0000;1688.6490
3386.0000;1699.4080
3387.0000;1715.2270
3388.0000;1730.3960
3389.0000;1738.6300
3390.0000;1736.5680
3391.0000;1731.9500
3392.0000;1723.6810
3393.0000;1714.6320
3394.0000;1722.7740
3395.0000;1746.8930
3396.0000;1746.5670
3397.0000;1732.6250
3398.0000;1746.1710
3399.0000;1756.8130
3400.0000;1743.5470
3401.0000;1731.6520
3402.0000;1729.7120
3403.0000;1727.1820
3404.0000;1729.0580
3405.0000;1740.0520
3406.0000;1745.2810
3407.0000;1735.5760
3408.0000;1736.4330
3409.0000;1749.7520
3410.0000;1756.7120
3411.0000;1760.7310
3412.0000;1770.4990
3413.0000;1774.4680
3414.0000;1769.2840
3415.0000;1768.3950
3416.0000;1772.7080
3417.0000;1775.9220
3418.0000;1777.6830
3419.0000;1778.1240
3420.0000;1776.0540
3421.0000;1773.7760
3422.0000;1783.4920
3423.0000;1796.0970
3424.0000;1791.4290
3425.0000;1783.5890
3426.0000;1786.1860
3427.0000;1794.8640
3428.0000;1805.1640
3429.0000;1808.1080
3430.0000;1804.1250
3431.0000;1799.8430
3432.0000;1799.7410
3433.0000;1806.4220
3434.0000;1810.8160
3435.0000;1812.3170
3436.0000;1817.5980
3437.0000;1823.7520
3438.0000;1828.8980
3439.0000;1829.9740
3440.0000;1828.3060
3441.0000;1838.1160
3442.0000;1852.0640
3443.0000;1854.9630
3444.0000;1854.7840
3445.0000;1858.7950
3446.0000;1862.8450
3447.0000;1865.9040
3448.0000;1869.9400
3449.0000;1874.6200
3450.0000;1881.2750
3451.0000;1881.7280
3452.0000;1875.1000
3453.0000;1879.4290
3454.0000;1886.6000
3455.0000;1872.5540
3456.0000;1860.7730
3457.0000;1868.3760
3458.0000;1873.7880
3459.0000;1873.3270
3460.0000;1878.2900
3461.0000;1884.9830
3462.0000;1889.6090
3463.0000;1888.2950
3464.0000;1882.4420
3465.0000;1889.2810
3466.0000;1902.3000
3467.0000;1902.0480
3468.0000;1897.5980
3469.0000;1897.8020
3470.0000;1900.5690
3471.0000;1904.2230
3472.0000;1902.9110
3473.0000;1902.8230
3474.0000;1912.3250
3475.0000;1920.6280
3476.0000;1923.8160
3477.0000;1935.4030
3478.0000;1946.7580
3479.0000;1945.1230
3480.0000;1940.2420
3481.0000;1941.8420
3482.0000;1951.1450
3483.0000;1961.8800
3484.0000;1959.3340
3485.0000;1950.6360
3486.0000;1947.6410
3487.0000;1944.4040
3488.0000;1941.8950
3489.0000;1945.5120
3490.0000;1954.3330
3491.0000;1963.0580
3492.0000;1974.5620
3493.0000;1986.4330
3494.0000;1979.9430
3495.0000;1964.0000
3496.0000;1972.1210
3497.0000;1979.6080
3498.0000;1968.9740
3499.0000;1974.8470
3500.0000;1995.0320
3501.0000;1992.7490
3502.0000;1987.2280
3503.0000;2002.6450
3504.0000;2015.4520
3505.0000;2015.5930
3506.0000;2010.8850
3507.0000;2005.8890
3508.0000;2010.5690
3509.0000;2008.6450
3510.0000;1996.3380
3511.0000;2005.7820
3512.0000;2027.1980
3513.0000;2025.8960
3514.0000;2023.8930
3515.0000;2036.4360
3516.0000;2044.4340
3517.0000;2044.7000
3518.0000;2048.0820
3519.0000;2047.8130
3520.0000;2041.0280
3521.0000;2036.1690
3522.0000;2038.4970
3523.0000;2051.4930
3524.0000;2063.3010
3525.0000;2058.8810
3526.0000;2054.6110
3527.0000;2058.1370
3528.0000;2067.8960
3529.0000;2079.4560
3530.0000;2087.1210
3531.0000;2085.8420
3532.0000;2077.8000
3533.0000;2082.7180
3534.0000;2098.4030
3535.0000;2111.2350
3536.0000;2120.0800
3537.0000;2122.2470
3538.0000;2106.8790
3539.0000;2084.8000
3540.0000;2083.7460
3541.0000;2094.4790
3542.0000;2104.6000
3543.0000;2114.2910
3544.0000;2118.2430
3545.0000;2111.4000
3546.0000;2109.4740
3547.0000;2126.6660
3548.0000;2122.6380
3549.0000;2098.5150
3550.0000;2098.1690
3551.0000;2107.4560
3552.0000;2106.2310
3553.0000;2108.2600
3554.0000;2115.4060
3555.0000;2122.8990
3556.0000;2127.4990
3557.0000;2127.2210
3558.0000;2130.8020
3559.0000;2140.8890
3560.0000;2154.4640
3561.0000;2162.9080
3562.0000;2159.8630
3563.0000;2158.3550
3564.0000;2164.6610
3565.0000;2174.7160
3566.0000;2184.0560
3567.0000;2188.2170
3568.0000;2193.3220
3569.0000;2201.1950
3570.0000;2207.0910
3571.0000;2209.0070
3572.0000;2209.1640
3573.0000;2207.3090
3574.0000;2205.4200
3575.0000;2208.1830
3576.0000;2210.9010
3577.0000;2204.3820
3578.0000;2201.9440
3579.0000;2209.0980
3580.0000;2214.5430
3581.0000;2218.4150
3582.0000;2224.2800
3583.0000;2230.7470
3584.0000;2235.4480
3585.0000;2232.3380
3586.0000;2224.3690
3587.0000;2221.0420
3588.0000;2219.5890
3589.0000;2220.5730
3590.0000;2234.5660
3591.0000;2246.7370
3592.0000;2232.3470
3593.0000;2226.2310
3594.0000;2243.8930
3595.0000;2258.8970
3596.0000;2265.7740
3597.0000;2264.4210
3598.0000;2274.7970
3599.0000;2300.3460
3600.0000;2309.3120
3601.0000;2301.9950
3602.0000;2295.1160
3603.0000;2293.2380
3604.0000;2300.4160
3605.0000;2313.0420
3606.0000;2322.9160
3607.0000;2319.8390
3608.0000;2326.7870
3609.0000;2345.7150
3610.0000;2340.0640
3611.0000;2326.2880
3612.0000;2333.8460
3613.0000;2340.7530
3614.0000;2343.0880
3615.0000;2362.1770
3616.0000;2374.3850
3617.0000;2358.1710
3618.0000;2347.9870
3619.0000;2354.3790
3620.0000;2361.1550
3621.0000;2365.3430
3622.0000;2363.6710
3623.0000;2369.3970
3624.0000;2379.5660
3625.0000;2375.5490
3626.0000;2370.9560
3627.0000;2378.3200
3628.0000;2389.7020
3629.0000;2398.9000
3630.0000;2397.5900
3631.0000;2400.9030
3632.0000;2418.2460
3633.0000;2425.3380
3634.0000;2425.4550
3635.0000;2441.9780
3636.0000;2448.4900
3637.0000;2435.8850
3638.0000;2432.5040
3639.0000;2438.4600
3640.0000;2443.9910
3641.0000;2451.2000
3642.0000;2458.0250
3643.0000;2460.8090
3644.0000;2459.5570
3645.0000;2458.3460
3646.0000;2460.0120
3647.0000;2466.0960
3648.0000;2476.4780
3649.0000;2485.3920
3650.0000;2487.4690
3651.0000;2488.3640
3652.0000;2490.2850
3653.0000;2495.9880
3654.0000;2503.8780
3655.0000;2510.8190
3656.0000;2503.9930
3657.0000;2491.5300
3658.0000;2496.5770
3659.0000;2508.5450
3660.0000;2517.7730
3661.0000;2520.5960
3662.0000;2517.6980
3663.0000;2516.8750
3664.0000;2513.8650
3665.0000;2510.6990
3666.0000;2515.6690
3667.0000;2525.0630
3668.0000;2531.9880
3669.0000;2542.0800
3670.0000;2550.5090
3671.0000;2546.8830
3672.0000;2541.5730
3673.0000;2545.3120
3674.0000;2550.7560
3675.0000;2557.4970
3676.0000;2568.4380
3677.0000;2573.2300
3678.0000;2570.1210
3679.0000;2579.4770
3680.0000;2599.4240
3681.0000;2621.5610
3682.0000;2638.7390
3683.0000;2642.3780
3684.0000;2630.7000
3685.0000;2622.9550
3686.0000;2638.6050
3687.0000;2641.9660
3688.0000;2633.9070
3689.0000;2637.0840
3690.0000;2651.0820
3691.0000;2669.5500
3692.0000;2670.8100
3693.0000;2657.2060
3694.0000;2644.8360
3695.0000;2651.5550
3696.0000;2672.6380
3697.0000;2664.6310
3698.0000;2642.3950
3699.0000;2629.7290
3700.0000;2647.8180
3701.0000;2682.6660
3702.0000;2687.1190
3703.0000;2682.9170
3704.0000;2685.9400
3705.0000;2702.3590
3706.0000;2720.2540
3707.0000;2722.4360
3708.0000;2726.7040
3709.0000;2731.5950
3710.0000;2715.6720
3711.0000;2706.9440
3712.0000;2726.5450
3713.0000;2737.7660
3714.0000;2742.7220
3715.0000;2762.7410
3716.0000;2768.0080
3717.0000;2751.4390
3718.0000;2747.8510
3719.0000;2753.4290
3720.0000;2759.1070
3721.0000;2766.4110
3722.0000;2773.4460
3723.0000;2780.7100
3724.0000;2786.6100
3725.0000;2791.6770
3726.0000;2804.8050
3727.0000;2809.8400
3728.0000;2789.4830
3729.0000;2783.1470
3730.0000;2799.5030
3731.0000;2810.4690
3732.0000;2819.4140
3733.0000;2825.7730
3734.0000;2821.4520
3735.0000;2811.8970
3736.0000;2811.1270
3737.0000;2814.0250
3738.0000;2819.3080
3739.0000;2829.6530
3740.0000;2836.4270
3741.0000;2834.3190
3742.0000;2843.7830
3743.0000;2859.3190
3744.0000;2865.7290
3745.0000;2868.2640
3746.0000;2868.4470
3747.0000;2863.8060
3748.0000;2861.8790
3749.0000;2869.3170
3750.0000;2868.3400
3751.0000;2866.3650
3752.0000;2887.1920
3753.0000;2895.5910
3754.0000;2881.0780
3755.0000;2879.6540
3756.0000;2893.1560
3757.0000;2915.9580
3758.0000;2914.3630
3759.0000;2895.3170
3760.0000;2896.0020
3761.0000;2913.5830
3762.0000;2939.8340
3763.0000;2958.8240
3764.0000;2967.3910
3765.0000;2970.9610
3766.0000;2980.4900
3767.0000;2986.4380
3768.0000;2970.2110
3769.0000;2970.2070
3770.0000;2994.7940
3771.0000;2997.2790
3772.0000;2995.8210
3773.0000;3008.6020
3774.0000;3013.0870
3775.0000;3011.3090
3776.0000;3016.4270
3777.0000;3029.6280
3778.0000;3046.6090
3779.0000;3057.5180
3780.0000;3062.5280
3781.0000;3066.4370
3782.0000;3077.0050
3783.0000;3088.2340
3784.0000;3091.9880
3785.0000;3085.0140
3786.0000;3074.7500
3787.0000;3082.9720
3788.0000;3091.1680
3789.0000;3087.2080
3790.0000;3087.1300
3791.0000;3089.9330
3792.0000;3092.6910
3793.0000;3098.0900
3794.0000;3105.0250
3795.0000;3110.4980
3796.0000;3125.0550
3797.0000;3144.6620
3798.0000;3137.2680
3799.0000;3127.1440
3800.0000;3142.5360
3801.0000;3151.1910
3802.0000;3149.0890
3803.0000;3144.1520
3804.0000;3137.7600
3805.0000;3133.7710
3806.0000;3132.5310
3807.0000;3132.7170
3808.0000;3134.0610
3809.0000;3150.7070
3810.0000;3167.8150
3811.0000;3166.5130
3812.0000;3164.0040
3813.0000;3165.5800
3814.0000;3173.2010
3815.0000;3180.8050
3816.0000;3186.4580
3817.0000;3201.5750
3818.0000;3207.4190
3819.0000;3194.1300
3820.0000;3192.8600
3821.0000;3201.3260
3822.0000;3206.2700
3823.0000;3221.8440
3824.0000;3235.6970
3825.0000;3220.0940
3826.0000;3200.5270
3827.0000;3196.1850
3828.0000;3203.9060
3829.0000;3210.8210
3830.0000;3204.8040
3831.0000;3217.5860
3832.0000;3234.8680
3833.0000;3230.8520
3834.0000;3225.5950
3835.0000;3222.6040
3836.0000;3211.4470
3837.0000;3215.7810
3838.0000;3239.5170
3839.0000;3251.7940
3840.0000;3262.0550
3841.0000;3278.5120
3842.0000;3288.7490
3843.0000;3291.9380
3844.0000;3295.5010
3845.0000;3293.6890
3846.0000;3287.3970
3847.0000;3282.2480
3848.0000;3278.1010
3849.0000;3280.0320
3850.0000;3299.5610
3851.0000;3324.3740
3852.0000;3341.5410
3853.0000;3366.7030
3854.0000;3382.2350
3855.0000;3376.5380
3856.0000;3379.0080
3857.0000;3388.5640
3858.0000;3391.3880
3859.0000;3388.8710
3860.0000;3384.5000
3861.0000;3385.7550
3862.0000;3393.2190
3863.0000;3402.8160
3864.0000;3401.5290
3865.0000;3402.3600
3866.0000;3417.0920
3867.0000;3435.2740
3868.0000;3447.0000
3869.0000;3445.5110
3870.0000;3432.2170
3871.0000;3423.6380
3872.0000;3447.2520
3873.0000;3461.0990
3874.0000;3454.5540
3875.0000;3463.5730
3876.0000;3460.2950
3877.0000;3441.7260
3878.0000;3455.1620
3879.0000;3473.8740
3880.0000;3469.6530
3881.0000;3464.4000
3882.0000;3465.3900
3883.0000;3477.9910
3884.0000;3478.3910
3885.0000;3464.3050
3886.0000;3447.9660
3887.0000;3452.6500
3888.0000;3478.0680
3889.0000;3494.4420
3890.0000;3503.0370
3891.0000;3504.2720
3892.0000;3502.3100
3893.0000;3507.8170
3894.0000;3526.4660
3895.0000;3540.1420
3896.0000;3547.6220
3897.0000;3552.6220
3898.0000;3546.7300
3899.0000;3533.4610
3900.0000;3523.6170
3901.0000;3526.8030
3902.0000;3540.5020
3903.0000;3548.6230
3904.0000;3552.4550
3905.0000;3552.5440
3906.0000;3555.3520
3907.0000;3553.0740
3908.0000;3548.1880
3909.0000;3561.2570
3910.0000;3568.1500
3911.0000;3556.7920
3912.0000;3561.7010
3913.0000;3578.5030
3914.0000;3595.8100
3915.0000;3608.3100
3916.0000;3618.7920
3917.0000;3636.0570
3918.0000;3645.6530
3919.0000;3644.8710
3920.0000;3642.1320
3921.0000;3643.1700
3922.0000;3654.7630
3923.0000;3682.1370
3924.0000;3698.9050
3925.0000;3697.5110
3926.0000;3705.0960
3927.0000;3703.2360
3928.0000;3692.7110
3929.0000;3699.9250
3930.0000;3702.1690
3931.0000;3688.7760
3932.0000;3684.4600
3933.0000;3699.8540
3934.0000;3730.6010
3935.0000;3737.8220
3936.0000;3730.3270
3937.0000;3730.7500
3938.0000;3734.2170
3939.0000;3735.1470
3940.0000;3728.1820
3941.0000;3731.3740
3942.0000;3739.4210
3943.0000;3737.4940
3944.0000;3744.0570
3945.0000;3756.5980
3946.0000;3762.6550
3947.0000;3764.7450
3948.0000;3766.1700
3949.0000;3774.5900
3950.0000;3777.4500
3951.0000;3774.0460
3952.0000;3778.9160
3953.0000;3779.1350
3954.0000;3775.3490
3955.0000;3791.4080
3956.0000;3798.3710
3957.0000;3784.0020
3958.0000;3777.1280
3959.0000;3777.7930
3960.0000;3782.8690
3961.0000;3776.9000
3962.0000;3781.6650
3963.0000;3806.0860
3964.0000;3806.2740
3965.0000;3787.3020
3966.0000;3768.8830
3967.0000;3767.5270
3968.0000;3782.3880
3969.0000;3798.6520
3970.0000;3793.9800
3971.0000;3783.7990
3972.0000;3793.8560
3973.0000;3789.8550
3974.0000;3782.6270
3975.0000;3793.4920
3976.0000;3798.1680
3977.0000;3798.8150
3978.0000;3807.2790
3979.0000;3813.1100
3980.0000;3816.2740
3981.0000;3822.7880
3982.0000;3831.2810
3983.0000;3840.3670
3984.0000;3849.5260
3985.0000;3853.7790
3986.0000;3850.7770
3987.0000;3843.2730
3988.0000;3842.9230
3989.0000;3853.3570
3990.0000;3867.8170
3991.0000;3871.0080
3992.0000;3866.5050
3993.0000;3881.1120
3994.0000;3885.0810
3995.0000;3877.9600
3996.0000;3888.9710
3997.0000;3901.6730
3998.0000;3910.6580
3999.0000;3925.1120
4000.0000;3923.2030
4001.0000;3912.0520
4002.0000;3934.6580
4003.0000;3951.9630
4004.0000;3952.6590
4005.0000;3969.5210
4006.0000;3983.8170
4007.0000;3987.9990
4008.0000;3989.9680
4009.0000;3985.4360
4010.0000;3978.7110
4011.0000;3980.6940
4012.0000;3976.6750
4013.0000;3967.7170
4014.0000;3975.0670
4015.0000;3989.5340
4016.0000;3999.4600
4017.0000;3995.7820
4018.0000;3999.8550
4019.0000;4016.8460
4020.0000;4026.0380
4021.0000;4039.9290
4022.0000;4055.6890
4023.0000;4060.9820
4024.0000;4048.3870
4025.0000;4024.3800
4026.0000;4004.2430
4027.0000;4001.4080
4028.0000;4014.1320
4029.0000;4018.8680
4030.0000;4018.1790
4031.0000;4017.8390
4032.0000;4031.5360
4033.0000;4040.5280
4034.0000;4038.7810
4035.0000;4037.1160
4036.0000;4023.0820
4037.0000;4011.9410
4038.0000;4037.2320
4039.0000;4039.1380
4040.0000;4016.9620
4041.0000;4019.9450
4042.0000;4030.0420
4043.0000;4040.7060
4044.0000;4048.9600
4045.0000;4055.6740
4046.0000;4061.6720
4047.0000;4070.5540
4048.0000;4075.3240
4049.0000;4072.7990
4050.0000;4065.2880
4051.0000;4078.5970
4052.0000;4099.8970
4053.0000;4101.6810
4054.0000;4105.9140
4055.0000;4108.6470
4056.0000;4104.0460
4057.0000;4106.4370
4058.0000;4117.3450
4059.0000;4131.0320
4060.0000;4134.7670
4061.0000;4140.1870
4062.0000;4159.4390
4063.0000;4170.8260
4064.0000;4170.9080
4065.0000;4164.6540
4066.0000;4161.7480
4067.0000;4175.6870
4068.0000;4205.3110
4069.0000;4217.8580
4070.0000;4220.7000
4071.0000;4219.0070
4072.0000;4195.8930
4073.0000;4195.1090
4074.0000;4219.0180
4075.0000;4195.6330
4076.0000;4186.4350
4077.0000;4201.0770
4078.0000;4182.7970
4079.0000;4172.3850
4080.0000;4180.2110
4081.0000;4187.7200
4082.0000;4171.5980
4083.0000;4148.3860
4084.0000;4158.4590
4085.0000;4168.9680
4086.0000;4161.5590
4087.0000;4131.2730
4088.0000;4135.3380
4089.0000;4145.5080
4090.0000;4119.4880
4091.0000;4117.2560
4092.0000;4134.0160
4093.0000;4148.3710
4094.0000;4138.5440
4095.0000;4138.6240
4096.0000;4166.3460
4097.0000;4169.5950
4098.0000;4165.0660
4099.0000;4166.5830
4100.0000;4173.7280
4101.0000;4165.9690
4102.0000;4145.7430
4103.0000;4142.2460
4104.0000;4137.5310
4105.0000;4125.9940
4106.0000;4109.7210
4107.0000;4084.1460
4108.0000;4059.6410
4109.0000;4047.4020
4110.0000;4026.4780
4111.0000;4004.1300
4112.0000;3987.4950
4113.0000;3940.0430
4114.0000;3893.5670
4115.0000;3875.0970
4116.0000;3836.9520
4117.0000;3796.8360
4118.0000;3762.8000
4119.0000;3718.9140
4120.0000;3666.0050
4121.0000;3614.7740
4122.0000;3584.1610
4123.0000;3538.6150
4124.0000;3481.1060
4125.0000;3435.0380
4126.0000;3374.4770
4127.0000;3315.4520
4128.0000;3276.2240
4129.0000;3249.7270
4130.0000;3212.9640
4131.0000;3144.6950
4132.0000;3075.1090
4133.0000;3022.9740
4134.0000;2986.0520
4135.0000;2918.7880
4136.0000;2854.2340
4137.0000;2805.4160
4138.0000;2749.8470
4139.0000;2696.1450
4140.0000;2646.1240
4141.0000;2590.4230
4142.0000;2527.2910
4143.0000;2474.2930
4144.0000;2439.7940
4145.0000;2393.0690
4146.0000;2359.0570
4147.0000;2345.1390
4148.0000;2297.8720
4149.0000;2258.2340
4150.0000;2246.2760
4151.0000;2234.2750
4152.0000;2209.6690
4153.0000;2178.2640
4154.0000;2160.8400
4155.0000;2146.7280
4156.0000;2131.4100
4157.0000;2110.5750
4158.0000;2090.7960
4159.0000;2063.4890
4160.0000;2027.1510
4161.0000;2009.5230
4162.0000;2003.0150
4163.0000;1995.1230
4164.0000;1976.7000
4165.0000;1971.7100
4166.0000;1976.8170
4167.0000;1967.1130
4168.0000;1966.8480
4169.0000;1967.3750
4170.0000;1955.6980
4171.0000;1956.2020
4172.0000;1959.0850
4173.0000;1955.7250
4174.0000;1956.9320
4175.0000;1961.2810
4176.0000;1963.1360
4177.0000;1954.8140
4178.0000;1946.5550
4179.0000;1939.2840
4180.0000;1929.1050
4181.0000;1925.2480
4182.0000;1923.9570
4183.0000;1919.4030
4184.0000;1917.4600
4185.0000;1914.7240
4186.0000;1911.5510
4187.0000;1913.6690
4188.0000;1923.5170
4189.0000;1931.7040
4190.0000;1926.4970
4191.0000;1935.5830
4192.0000;1952.8830
4193.0000;1962.6120
4194.0000;1962.2340
4195.0000;1955.7930
4196.0000;1948.1660
4197.0000;1934.3740
4198.0000;1928.6000
4199.0000;1929.0480
4200.0000;1921.6930
4201.0000;1919.3320
4202.0000;1923.5290
4203.0000;1930.6660
4204.0000;1938.9550
4205.0000;1939.4980
4206.0000;1933.5940
4207.0000;1937.5700
4208.0000;1942.3150
4209.0000;1949.1090
4210.0000;1961.6320
4211.0000;1955.2900
4212.0000;1945.9860
4213.0000;1950.9160
4214.0000;1949.5280
4215.0000;1956.1550
4216.0000;1962.4080
4217.0000;1938.0110
4218.0000;1933.0130
4219.0000;1936.2940
4220.0000;1917.8310
4221.0000;1920.7160
4222.0000;1943.4480
4223.0000;1965.5010
4224.0000;1958.2670
4225.0000;1935.4060
4226.0000;1921.4900
4227.0000;1935.0220
4228.0000;1944.1980
4229.0000;1937.9310
4230.0000;1921.5380
4231.0000;1927.9830
4232.0000;1935.8510
4233.0000;1933.2960
4234.0000;1931.6960
4235.0000;1911.0820
4236.0000;1713.9010
4237.0000;1244.8290
4238.0000;677.6209
