Raman Shift ; Dark Subtracted #1
-2.0000;9101.9300
-1.0000;8480.6560
0.0000;7612.2280
1.0000;6502.5740
2.0000;5198.7340
3.0000;3851.4370
4.0000;2693.3530
5.0000;1705.4720
6.0000;1018.3380
7.0000;745.1884
8.0000;555.4398
9.0000;460.2234
10.0000;522.2108
11.0000;504.6283
12.0000;317.3641
13.0000;126.0292
14.0000;-8.5942
15.0000;-42.3126
16.0000;-2.3020
17.0000;34.6542
18.0000;32.9279
19.0000;29.9576
20.0000;28.5072
21.0000;30.7805
22.0000;34.0368
23.0000;35.5202
24.0000;32.9907
25.0000;28.9618
26.0000;25.7963
27.0000;25.7983
28.0000;27.5068
29.0000;29.0638
30.0000;29.2347
31.0000;28.4341
32.0000;26.6563
33.0000;23.6314
34.0000;20.1021
35.0000;17.1080
36.0000;15.0874
37.0000;14.5564
38.0000;14.7880
39.0000;15.7803
40.0000;16.9306
41.0000;16.3344
42.0000;10.5087
43.0000;2.7869
44.0000;-2.2334
45.0000;0.1958
46.0000;8.0857
47.0000;15.7571
48.0000;17.9168
49.0000;15.6922
50.0000;11.7768
51.0000;8.4214
52.0000;5.4751
53.0000;4.0133
54.0000;5.4415
55.0000;9.3424
56.0000;12.9427
57.0000;12.2711
58.0000;8.9007
59.0000;7.1313
60.0000;12.3149
61.0000;22.4712
62.0000;31.7465
63.0000;34.2631
64.0000;30.1354
65.0000;25.2908
66.0000;26.0789
67.0000;31.3114
68.0000;37.7964
69.0000;42.4912
70.0000;45.3311
71.0000;48.3918
72.0000;54.3371
73.0000;61.9754
74.0000;69.8475
75.0000;77.6218
76.0000;83.5776
77.0000;89.5797
78.0000;99.1837
79.0000;110.4572
80.0000;121.0631
81.0000;130.8664
82.0000;137.6898
83.0000;143.0167
84.0000;149.8938
85.0000;157.0259
86.0000;165.2549
87.0000;177.9526
88.0000;193.5059
89.0000;209.5595
90.0000;225.2425
91.0000;238.0059
92.0000;248.1863
93.0000;259.1036
94.0000;268.5503
95.0000;278.9479
96.0000;296.6774
97.0000;320.0765
98.0000;342.6031
99.0000;362.1402
100.0000;374.6772
101.0000;381.7285
102.0000;391.1852
103.0000;401.2740
104.0000;411.4476
105.0000;425.4510
106.0000;441.9865
107.0000;458.1854
108.0000;476.2611
109.0000;492.3385
110.0000;504.1134
111.0000;513.4036
112.0000;517.6885
113.0000;518.8820
114.0000;523.8646
115.0000;532.6125
116.0000;542.9999
117.0000;555.7150
118.0000;569.7087
119.0000;580.9911
120.0000;586.6516
121.0000;584.4659
122.0000;580.1969
123.0000;583.7329
124.0000;596.2980
125.0000;611.2407
126.0000;622.6723
127.0000;628.3976
128.0000;630.1409
129.0000;631.6193
130.0000;632.3376
131.0000;632.5381
132.0000;635.0134
133.0000;639.9329
134.0000;645.5773
135.0000;650.7545
136.0000;654.7104
137.0000;657.4904
138.0000;660.0122
139.0000;661.8510
140.0000;663.1362
141.0000;665.7032
142.0000;669.5423
143.0000;672.7981
144.0000;674.8646
145.0000;674.9192
146.0000;674.2602
147.0000;674.6900
148.0000;676.3346
149.0000;679.0921
150.0000;683.2219
151.0000;688.6677
152.0000;693.8403
153.0000;698.7088
154.0000;702.3462
155.0000;703.6007
156.0000;702.5695
157.0000;698.7599
158.0000;694.6100
159.0000;693.5360
160.0000;696.2576
161.0000;701.0081
162.0000;706.8685
163.0000;712.8422
164.0000;717.3092
165.0000;718.2729
166.0000;714.8247
167.0000;710.4344
168.0000;710.0626
169.0000;713.6876
170.0000;716.5037
171.0000;712.1061
172.0000;700.9153
173.0000;692.3848
174.0000;695.7307
175.0000;711.6185
176.0000;727.9444
177.0000;734.0589
178.0000;728.6199
179.0000;719.4111
180.0000;715.6613
181.0000;716.4393
182.0000;718.3344
183.0000;718.1153
184.0000;716.5396
185.0000;715.6992
186.0000;716.0715
187.0000;718.3575
188.0000;723.7527
189.0000;735.2120
190.0000;749.4801
191.0000;760.6040
192.0000;761.9492
193.0000;753.6448
194.0000;743.6267
195.0000;741.3376
196.0000;744.9371
197.0000;750.6409
198.0000;754.5775
199.0000;757.7813
200.0000;760.7570
201.0000;765.8542
202.0000;770.3057
203.0000;771.0695
204.0000;765.5171
205.0000;754.8204
206.0000;744.8487
207.0000;740.5852
208.0000;741.3517
209.0000;743.8730
210.0000;743.2576
211.0000;742.9441
212.0000;744.3205
213.0000;747.8810
214.0000;753.5584
215.0000;761.2000
216.0000;772.8331
217.0000;783.6317
218.0000;789.7313
219.0000;788.5657
220.0000;781.0990
221.0000;774.3678
222.0000;774.4628
223.0000;777.3564
224.0000;779.5667
225.0000;777.8224
226.0000;775.1826
227.0000;773.7011
228.0000;774.5546
229.0000;777.7906
230.0000;783.1633
231.0000;790.7120
232.0000;798.7401
233.0000;805.1987
234.0000;809.1454
235.0000;809.1938
236.0000;806.6439
237.0000;801.3168
238.0000;794.5469
239.0000;789.1229
240.0000;786.3403
241.0000;787.1408
242.0000;791.3009
243.0000;799.6516
244.0000;809.0676
245.0000;815.6735
246.0000;817.3166
247.0000;815.7537
248.0000;814.7184
249.0000;814.4740
250.0000;813.2031
251.0000;809.5145
252.0000;803.4573
253.0000;798.9573
254.0000;800.2698
255.0000;808.1785
256.0000;816.3668
257.0000;817.4713
258.0000;811.1209
259.0000;804.0002
260.0000;802.8134
261.0000;807.2566
262.0000;813.8082
263.0000;819.0834
264.0000;822.6906
265.0000;824.7429
266.0000;825.7390
267.0000;824.8305
268.0000;823.3821
269.0000;822.8209
270.0000;823.0640
271.0000;824.5259
272.0000;828.1970
273.0000;832.9727
274.0000;836.8425
275.0000;838.4934
276.0000;837.6806
277.0000;836.0000
278.0000;834.0529
279.0000;832.6514
280.0000;833.8303
281.0000;840.4097
282.0000;848.9136
283.0000;854.8217
284.0000;854.4698
285.0000;850.1799
286.0000;846.6382
287.0000;847.2927
288.0000;849.1125
289.0000;849.7487
290.0000;847.3326
291.0000;844.7206
292.0000;844.4423
293.0000;848.0176
294.0000;852.5916
295.0000;855.0184
296.0000;853.8212
297.0000;851.2001
298.0000;849.2675
299.0000;848.5542
300.0000;849.9749
301.0000;855.2781
302.0000;864.2368
303.0000;872.9837
304.0000;878.7761
305.0000;879.7410
306.0000;876.3611
307.0000;869.0611
308.0000;858.1917
309.0000;850.5400
310.0000;852.4198
311.0000;863.3367
312.0000;875.1956
313.0000;879.1721
314.0000;876.8218
315.0000;874.2584
316.0000;877.8899
317.0000;884.4071
318.0000;890.6973
319.0000;894.6517
320.0000;895.9994
321.0000;896.6851
322.0000;899.4566
323.0000;901.4205
324.0000;901.7239
325.0000;899.3264
326.0000;895.5613
327.0000;892.7322
328.0000;891.5144
329.0000;893.3406
330.0000;899.4854
331.0000;912.0215
332.0000;924.3133
333.0000;927.8246
334.0000;918.1707
335.0000;904.3279
336.0000;898.0394
337.0000;903.8896
338.0000;913.3386
339.0000;917.4047
340.0000;914.2144
341.0000;910.7746
342.0000;913.4482
343.0000;922.6130
344.0000;932.8903
345.0000;941.9609
346.0000;947.8085
347.0000;948.7410
348.0000;943.7142
349.0000;932.8688
350.0000;924.0895
351.0000;925.1764
352.0000;933.7078
353.0000;941.3350
354.0000;940.4362
355.0000;934.4830
356.0000;928.9196
357.0000;928.2881
358.0000;930.0015
359.0000;931.3033
360.0000;929.4346
361.0000;927.3268
362.0000;926.9985
363.0000;929.7002
364.0000;934.2734
365.0000;939.3088
366.0000;943.4908
367.0000;947.5431
368.0000;952.8647
369.0000;959.5293
370.0000;964.1999
371.0000;964.5353
372.0000;959.2404
373.0000;952.8184
374.0000;950.2335
375.0000;952.3453
376.0000;956.8228
377.0000;961.2737
378.0000;965.7413
379.0000;969.2574
380.0000;971.6074
381.0000;971.9254
382.0000;971.6087
383.0000;972.1792
384.0000;973.0037
385.0000;974.6000
386.0000;978.5871
387.0000;982.5224
388.0000;984.3672
389.0000;981.3923
390.0000;976.6240
391.0000;975.1956
392.0000;980.8842
393.0000;988.6543
394.0000;993.5301
395.0000;992.1678
396.0000;988.5319
397.0000;987.8386
398.0000;991.6395
399.0000;996.0484
400.0000;997.9648
401.0000;996.6356
402.0000;993.7534
403.0000;990.2312
404.0000;986.8265
405.0000;985.9486
406.0000;989.8351
407.0000;997.9866
408.0000;1007.2320
409.0000;1014.8040
410.0000;1019.2930
411.0000;1021.3730
412.0000;1022.4540
413.0000;1020.7630
414.0000;1018.4240
415.0000;1016.3960
416.0000;1015.4720
417.0000;1017.5740
418.0000;1023.8890
419.0000;1032.5750
420.0000;1040.6810
421.0000;1046.3090
422.0000;1049.7180
423.0000;1052.8380
424.0000;1055.2920
425.0000;1055.4680
426.0000;1053.7810
427.0000;1049.8390
428.0000;1045.0050
429.0000;1040.3230
430.0000;1036.8190
431.0000;1034.9830
432.0000;1034.9020
433.0000;1036.8920
434.0000;1038.3860
435.0000;1035.6830
436.0000;1031.2630
437.0000;1028.7920
438.0000;1031.3070
439.0000;1036.8850
440.0000;1042.7400
441.0000;1046.7520
442.0000;1049.0170
443.0000;1050.0810
444.0000;1049.6880
445.0000;1048.7770
446.0000;1050.2950
447.0000;1055.2010
448.0000;1060.1110
449.0000;1062.2080
450.0000;1060.3330
451.0000;1058.3630
452.0000;1061.6720
453.0000;1069.1350
454.0000;1075.0860
455.0000;1074.2980
456.0000;1067.8890
457.0000;1062.5880
458.0000;1065.2080
459.0000;1072.7130
460.0000;1079.9600
461.0000;1083.4600
462.0000;1084.2710
463.0000;1084.8720
464.0000;1087.5160
465.0000;1088.9830
466.0000;1087.3250
467.0000;1080.6890
468.0000;1074.9390
469.0000;1076.7810
470.0000;1088.7680
471.0000;1102.8450
472.0000;1110.2550
473.0000;1108.9750
474.0000;1105.3470
475.0000;1108.1090
476.0000;1114.4160
477.0000;1118.1640
478.0000;1112.5310
479.0000;1101.6170
480.0000;1094.8000
481.0000;1101.0820
482.0000;1114.9190
483.0000;1127.3980
484.0000;1132.9400
485.0000;1132.6800
486.0000;1129.1830
487.0000;1122.7900
488.0000;1115.4580
489.0000;1112.0040
490.0000;1114.5650
491.0000;1118.6310
492.0000;1118.4020
493.0000;1113.6730
494.0000;1108.7360
495.0000;1106.9640
496.0000;1108.6340
497.0000;1111.9110
498.0000;1115.4170
499.0000;1118.7750
500.0000;1120.6000
501.0000;1118.9260
502.0000;1115.5700
503.0000;1114.3290
504.0000;1117.7950
505.0000;1124.1420
506.0000;1131.5010
507.0000;1139.1240
508.0000;1144.8640
509.0000;1146.9000
510.0000;1143.9590
511.0000;1139.4020
512.0000;1138.1060
513.0000;1140.4650
514.0000;1144.7550
515.0000;1149.2950
516.0000;1154.1540
517.0000;1159.8810
518.0000;1168.2540
519.0000;1175.9420
520.0000;1180.6190
521.0000;1180.6230
522.0000;1176.6510
523.0000;1173.8360
524.0000;1175.9620
525.0000;1178.8880
526.0000;1179.3500
527.0000;1175.9050
528.0000;1171.4630
529.0000;1168.5370
530.0000;1168.1990
531.0000;1169.9270
532.0000;1172.8620
533.0000;1177.1660
534.0000;1182.1350
535.0000;1187.2380
536.0000;1191.2770
537.0000;1193.8000
538.0000;1194.8690
539.0000;1194.0350
540.0000;1193.7850
541.0000;1195.6110
542.0000;1198.4740
543.0000;1201.9220
544.0000;1205.7460
545.0000;1209.1580
546.0000;1211.4850
547.0000;1211.9690
548.0000;1213.4780
549.0000;1221.7640
550.0000;1233.9420
551.0000;1242.1200
552.0000;1237.8560
553.0000;1224.0390
554.0000;1214.0000
555.0000;1220.4440
556.0000;1235.1460
557.0000;1245.1750
558.0000;1241.6280
559.0000;1232.7920
560.0000;1229.3400
561.0000;1235.3920
562.0000;1245.1570
563.0000;1253.4410
564.0000;1258.7550
565.0000;1260.1220
566.0000;1255.3770
567.0000;1245.2910
568.0000;1239.5520
569.0000;1248.3180
570.0000;1267.2750
571.0000;1283.3310
572.0000;1288.1210
573.0000;1283.8030
574.0000;1277.3490
575.0000;1272.2140
576.0000;1267.5080
577.0000;1265.0090
578.0000;1266.2030
579.0000;1268.7510
580.0000;1268.9600
581.0000;1266.7230
582.0000;1263.6990
583.0000;1260.9560
584.0000;1258.9550
585.0000;1258.3720
586.0000;1258.7770
587.0000;1261.1090
588.0000;1265.3130
589.0000;1272.6870
590.0000;1279.0560
591.0000;1279.2510
592.0000;1269.6220
593.0000;1257.3380
594.0000;1250.2420
595.0000;1251.6590
596.0000;1257.4900
597.0000;1261.9600
598.0000;1265.9090
599.0000;1270.6490
600.0000;1277.9040
601.0000;1285.4630
602.0000;1292.6290
603.0000;1299.0780
604.0000;1303.2690
605.0000;1308.0500
606.0000;1314.8320
607.0000;1320.1600
608.0000;1322.8820
609.0000;1321.8690
610.0000;1319.2290
611.0000;1318.9830
612.0000;1321.2290
613.0000;1324.7030
614.0000;1328.6930
615.0000;1333.0200
616.0000;1337.8500
617.0000;1345.4060
618.0000;1352.0850
619.0000;1356.0530
620.0000;1356.5620
621.0000;1353.3180
622.0000;1348.6940
623.0000;1343.4320
624.0000;1339.6160
625.0000;1339.8420
626.0000;1345.0530
627.0000;1350.7720
628.0000;1351.4850
629.0000;1348.6150
630.0000;1347.8760
631.0000;1356.1260
632.0000;1367.7770
633.0000;1375.4040
634.0000;1373.1750
635.0000;1366.4610
636.0000;1364.2010
637.0000;1369.7950
638.0000;1377.7950
639.0000;1383.5330
640.0000;1385.5780
641.0000;1385.0140
642.0000;1382.9470
643.0000;1379.2460
644.0000;1376.6280
645.0000;1377.5400
646.0000;1381.1980
647.0000;1385.4710
648.0000;1389.1160
649.0000;1391.8800
650.0000;1393.5680
651.0000;1393.6810
652.0000;1393.2540
653.0000;1395.3940
654.0000;1399.5640
655.0000;1401.7090
656.0000;1397.5940
657.0000;1389.0010
658.0000;1382.6000
659.0000;1384.2550
660.0000;1391.0850
661.0000;1397.3030
662.0000;1400.0630
663.0000;1400.2930
664.0000;1399.1530
665.0000;1396.5780
666.0000;1393.2550
667.0000;1389.8300
668.0000;1387.4650
669.0000;1388.2260
670.0000;1395.4340
671.0000;1406.3600
672.0000;1413.7810
673.0000;1411.2020
674.0000;1403.0430
675.0000;1397.9630
676.0000;1400.9930
677.0000;1405.7560
678.0000;1405.4620
679.0000;1398.9800
680.0000;1393.0800
681.0000;1393.0960
682.0000;1399.3680
683.0000;1407.7400
684.0000;1416.6570
685.0000;1423.0770
686.0000;1423.2000
687.0000;1412.2620
688.0000;1398.0350
689.0000;1393.2240
690.0000;1404.2680
691.0000;1418.2030
692.0000;1418.7430
693.0000;1405.2590
694.0000;1393.8880
695.0000;1400.3050
696.0000;1420.2240
697.0000;1440.6760
698.0000;1452.4770
699.0000;1456.5360
700.0000;1457.8560
701.0000;1458.8800
702.0000;1455.8090
703.0000;1449.1490
704.0000;1439.5930
705.0000;1432.2750
706.0000;1433.5850
707.0000;1442.6570
708.0000;1450.2140
709.0000;1445.9900
710.0000;1435.9140
711.0000;1428.8010
712.0000;1430.0930
713.0000;1437.1680
714.0000;1447.2300
715.0000;1458.6320
716.0000;1467.3850
717.0000;1469.1960
718.0000;1462.7520
719.0000;1454.9500
720.0000;1453.1060
721.0000;1455.7340
722.0000;1460.4680
723.0000;1465.2690
724.0000;1470.5080
725.0000;1475.4870
726.0000;1479.2720
727.0000;1482.4920
728.0000;1488.3160
729.0000;1495.4160
730.0000;1499.1560
731.0000;1495.7880
732.0000;1486.4740
733.0000;1478.3800
734.0000;1478.6160
735.0000;1483.1870
736.0000;1486.3710
737.0000;1485.0480
738.0000;1482.7310
739.0000;1482.7190
740.0000;1485.2580
741.0000;1486.3380
742.0000;1480.7100
743.0000;1471.1950
744.0000;1465.0000
745.0000;1469.0630
746.0000;1478.7980
747.0000;1485.8600
748.0000;1485.0790
749.0000;1481.3920
750.0000;1479.8890
751.0000;1481.4260
752.0000;1485.0570
753.0000;1492.0360
754.0000;1499.9350
755.0000;1503.0000
756.0000;1496.1410
757.0000;1482.6620
758.0000;1470.0450
759.0000;1463.7010
760.0000;1461.4690
761.0000;1458.7990
762.0000;1456.3520
763.0000;1457.3660
764.0000;1463.5020
765.0000;1473.5910
766.0000;1482.8000
767.0000;1486.8120
768.0000;1486.0770
769.0000;1484.5000
770.0000;1484.4300
771.0000;1483.2780
772.0000;1478.7900
773.0000;1471.2440
774.0000;1469.5220
775.0000;1484.0020
776.0000;1511.2350
777.0000;1533.8000
778.0000;1540.0550
779.0000;1533.2550
780.0000;1527.0880
781.0000;1529.2550
782.0000;1530.8050
783.0000;1525.9260
784.0000;1514.4120
785.0000;1504.0590
786.0000;1502.1110
787.0000;1508.8110
788.0000;1518.0140
789.0000;1525.4350
790.0000;1531.1300
791.0000;1535.0010
792.0000;1536.0630
793.0000;1534.3890
794.0000;1532.7060
795.0000;1530.9440
796.0000;1529.2620
797.0000;1527.1660
798.0000;1526.2020
799.0000;1528.1890
800.0000;1535.8720
801.0000;1544.5300
802.0000;1548.2860
803.0000;1543.2920
804.0000;1537.1330
805.0000;1539.8540
806.0000;1550.9450
807.0000;1563.3090
808.0000;1569.6530
809.0000;1571.5980
810.0000;1574.6940
811.0000;1583.6450
812.0000;1592.0110
813.0000;1595.6680
814.0000;1592.4480
815.0000;1586.4350
816.0000;1583.3720
817.0000;1583.3280
818.0000;1585.8960
819.0000;1591.8260
820.0000;1598.9470
821.0000;1602.3180
822.0000;1598.4230
823.0000;1592.1920
824.0000;1590.8620
825.0000;1595.7320
826.0000;1602.9330
827.0000;1611.1800
828.0000;1617.0240
829.0000;1615.2860
830.0000;1597.3650
831.0000;1575.6760
832.0000;1568.6430
833.0000;1585.9580
834.0000;1610.4890
835.0000;1620.8440
836.0000;1615.4060
837.0000;1606.4640
838.0000;1606.7710
839.0000;1611.2620
840.0000;1615.5230
841.0000;1617.4600
842.0000;1617.6280
843.0000;1616.2070
844.0000;1613.1570
845.0000;1611.8980
846.0000;1616.9810
847.0000;1627.2080
848.0000;1637.0200
849.0000;1641.8140
850.0000;1643.1730
851.0000;1646.2730
852.0000;1653.9010
853.0000;1658.8530
854.0000;1656.0190
855.0000;1645.1110
856.0000;1633.3640
857.0000;1628.6750
858.0000;1630.1850
859.0000;1632.7770
860.0000;1632.5630
861.0000;1633.0460
862.0000;1635.2920
863.0000;1639.3610
864.0000;1644.8070
865.0000;1653.0570
866.0000;1660.9840
867.0000;1663.1580
868.0000;1655.1600
869.0000;1640.8270
870.0000;1628.6060
871.0000;1622.4130
872.0000;1623.7190
873.0000;1632.7780
874.0000;1649.5370
875.0000;1665.6150
876.0000;1673.2180
877.0000;1673.1080
878.0000;1671.8190
879.0000;1672.6240
880.0000;1675.2560
881.0000;1685.3790
882.0000;1702.9470
883.0000;1715.1870
884.0000;1709.8460
885.0000;1689.8130
886.0000;1672.4510
887.0000;1671.9910
888.0000;1680.5390
889.0000;1686.4180
890.0000;1685.4780
891.0000;1684.3050
892.0000;1688.4470
893.0000;1696.3060
894.0000;1703.0000
895.0000;1704.9530
896.0000;1703.2570
897.0000;1702.5550
898.0000;1705.2860
899.0000;1706.9470
900.0000;1703.0760
901.0000;1694.2490
902.0000;1688.3440
903.0000;1693.3200
904.0000;1705.6850
905.0000;1715.0450
906.0000;1715.6950
907.0000;1711.7000
908.0000;1708.2680
909.0000;1706.1900
910.0000;1706.0750
911.0000;1709.9180
912.0000;1716.6410
913.0000;1721.4640
914.0000;1720.1570
915.0000;1717.6820
916.0000;1722.1380
917.0000;1735.6010
918.0000;1747.0400
919.0000;1744.5420
920.0000;1730.6990
921.0000;1719.1940
922.0000;1722.5280
923.0000;1732.6350
924.0000;1737.5000
925.0000;1732.8310
926.0000;1726.8190
927.0000;1726.1850
928.0000;1731.6640
929.0000;1741.0000
930.0000;1754.7930
931.0000;1768.4430
932.0000;1776.8930
933.0000;1775.5830
934.0000;1770.4660
935.0000;1772.7190
936.0000;1780.7760
937.0000;1786.4890
938.0000;1783.9150
939.0000;1775.1330
940.0000;1766.0380
941.0000;1758.2570
942.0000;1756.3140
943.0000;1766.3010
944.0000;1787.4130
945.0000;1804.5420
946.0000;1800.8260
947.0000;1783.6360
948.0000;1771.1040
949.0000;1775.6060
950.0000;1785.0400
951.0000;1787.3500
952.0000;1781.0550
953.0000;1773.2480
954.0000;1768.9200
955.0000;1768.0930
956.0000;1769.2850
957.0000;1772.2010
958.0000;1775.4420
959.0000;1775.2200
960.0000;1770.9850
961.0000;1767.5240
962.0000;1769.7600
963.0000;1775.9360
964.0000;1782.0060
965.0000;1784.4250
966.0000;1785.9320
967.0000;1791.1760
968.0000;1799.9560
969.0000;1804.6060
970.0000;1798.0920
971.0000;1784.6310
972.0000;1775.9650
973.0000;1781.3080
974.0000;1792.2450
975.0000;1798.3820
976.0000;1796.8780
977.0000;1792.9340
978.0000;1789.7050
979.0000;1788.3320
980.0000;1792.8290
981.0000;1806.3850
982.0000;1822.6280
983.0000;1833.3110
984.0000;1835.3260
985.0000;1831.9210
986.0000;1828.2330
987.0000;1823.2020
988.0000;1819.7510
989.0000;1821.0550
990.0000;1823.6560
991.0000;1822.1100
992.0000;1816.1130
993.0000;1810.4590
994.0000;1810.1620
995.0000;1813.4810
996.0000;1814.7630
997.0000;1810.1720
998.0000;1804.4530
999.0000;1802.3480
1000.0000;1804.9230
1001.0000;1809.0240
1002.0000;1811.1510
1003.0000;1812.2850
1004.0000;1813.1940
1005.0000;1813.6770
1006.0000;1815.2670
1007.0000;1820.6690
1008.0000;1829.1810
1009.0000;1837.8170
1010.0000;1844.4010
1011.0000;1847.6380
1012.0000;1850.6720
1013.0000;1855.1750
1014.0000;1856.4190
1015.0000;1852.9470
1016.0000;1844.0950
1017.0000;1833.2740
1018.0000;1821.9380
1019.0000;1813.4940
1020.0000;1810.6760
1021.0000;1815.9620
1022.0000;1823.9990
1023.0000;1825.3200
1024.0000;1820.7130
1025.0000;1818.7060
1026.0000;1827.2230
1027.0000;1839.7200
1028.0000;1847.3290
1029.0000;1845.5160
1030.0000;1841.8070
1031.0000;1846.5650
1032.0000;1856.6740
1033.0000;1863.4390
1034.0000;1860.7410
1035.0000;1852.3270
1036.0000;1845.8420
1037.0000;1843.3910
1038.0000;1841.7210
1039.0000;1837.2240
1040.0000;1831.8560
1041.0000;1826.8040
1042.0000;1821.8020
1043.0000;1819.8070
1044.0000;1821.2120
1045.0000;1826.8960
1046.0000;1834.6140
1047.0000;1841.8520
1048.0000;1847.5820
1049.0000;1852.0330
1050.0000;1855.0130
1051.0000;1855.7390
1052.0000;1856.1380
1053.0000;1855.9650
1054.0000;1856.6960
1055.0000;1862.4010
1056.0000;1868.3510
1057.0000;1868.4390
1058.0000;1859.0450
1059.0000;1847.9820
1060.0000;1844.4700
1061.0000;1848.6980
1062.0000;1853.4790
1063.0000;1853.0120
1064.0000;1849.9360
1065.0000;1845.8450
1066.0000;1841.3830
1067.0000;1837.3130
1068.0000;1831.7730
1069.0000;1828.7380
1070.0000;1833.4640
1071.0000;1851.0820
1072.0000;1871.3320
1073.0000;1881.1990
1074.0000;1876.3020
1075.0000;1867.1250
1076.0000;1866.9760
1077.0000;1869.7380
1078.0000;1868.8980
1079.0000;1860.5250
1080.0000;1852.2060
1081.0000;1851.4550
1082.0000;1859.0690
1083.0000;1866.6770
1084.0000;1866.0790
1085.0000;1863.1190
1086.0000;1865.3370
1087.0000;1875.2050
1088.0000;1885.5760
1089.0000;1890.5300
1090.0000;1889.7280
1091.0000;1888.5420
1092.0000;1891.4790
1093.0000;1894.1140
1094.0000;1893.7340
1095.0000;1889.8730
1096.0000;1886.8810
1097.0000;1890.2300
1098.0000;1896.3210
1099.0000;1898.9100
1100.0000;1894.5130
1101.0000;1887.8460
1102.0000;1883.8300
1103.0000;1883.3220
1104.0000;1885.1070
1105.0000;1888.5570
1106.0000;1892.6770
1107.0000;1894.2560
1108.0000;1891.8960
1109.0000;1889.3670
1110.0000;1890.3070
1111.0000;1894.3050
1112.0000;1899.9760
1113.0000;1907.8620
1114.0000;1912.7930
1115.0000;1908.4410
1116.0000;1895.0950
1117.0000;1884.9120
1118.0000;1889.9440
1119.0000;1903.7760
1120.0000;1912.9730
1121.0000;1912.5230
1122.0000;1907.5900
1123.0000;1903.6050
1124.0000;1900.2750
1125.0000;1899.0220
1126.0000;1901.6300
1127.0000;1905.7840
1128.0000;1907.9130
1129.0000;1906.9240
1130.0000;1903.8950
1131.0000;1899.6890
1132.0000;1894.7850
1133.0000;1889.2710
1134.0000;1882.8760
1135.0000;1881.8840
1136.0000;1892.5290
1137.0000;1911.4000
1138.0000;1925.3020
1139.0000;1924.3300
1140.0000;1913.6890
1141.0000;1903.9690
1142.0000;1897.9340
1143.0000;1894.3520
1144.0000;1893.0380
1145.0000;1894.8750
1146.0000;1896.4900
1147.0000;1896.2140
1148.0000;1895.5590
1149.0000;1894.9790
1150.0000;1894.7070
1151.0000;1895.2550
1152.0000;1896.4400
1153.0000;1899.1210
1154.0000;1905.1500
1155.0000;1913.5580
1156.0000;1918.8860
1157.0000;1914.4860
1158.0000;1904.9900
1159.0000;1902.5660
1160.0000;1913.1700
1161.0000;1926.9490
1162.0000;1935.5590
1163.0000;1937.3230
1164.0000;1935.8950
1165.0000;1933.0260
1166.0000;1929.8860
1167.0000;1932.3770
1168.0000;1940.8100
1169.0000;1949.1040
1170.0000;1951.6680
1171.0000;1949.7090
1172.0000;1947.7860
1173.0000;1947.4550
1174.0000;1947.6550
1175.0000;1949.3190
1176.0000;1951.4170
1177.0000;1951.0170
1178.0000;1946.4190
1179.0000;1939.4330
1180.0000;1931.3620
1181.0000;1924.6780
1182.0000;1924.0000
1183.0000;1932.9200
1184.0000;1948.1430
1185.0000;1962.5960
1186.0000;1971.8670
1187.0000;1975.6140
1188.0000;1976.4070
1189.0000;1971.8780
1190.0000;1966.4820
1191.0000;1962.1980
1192.0000;1960.3330
1193.0000;1962.2410
1194.0000;1968.5880
1195.0000;1976.7290
1196.0000;1985.8730
1197.0000;1991.9720
1198.0000;1992.4220
1199.0000;1985.2880
1200.0000;1976.3480
1201.0000;1972.0200
1202.0000;1971.2750
1203.0000;1971.4570
1204.0000;1971.6410
1205.0000;1973.9330
1206.0000;1978.4650
1207.0000;1985.0480
1208.0000;1992.4900
1209.0000;2001.0790
1210.0000;2005.8690
1211.0000;2003.6130
1212.0000;1993.6330
1213.0000;1984.4600
1214.0000;1983.6330
1215.0000;1988.5260
1216.0000;1994.7410
1217.0000;2000.7430
1218.0000;2002.8620
1219.0000;1995.7430
1220.0000;1982.7570
1221.0000;1973.1020
1222.0000;1971.5050
1223.0000;1976.4580
1224.0000;1986.3340
1225.0000;1998.7080
1226.0000;2004.3100
1227.0000;1994.9680
1228.0000;1981.8170
1229.0000;1981.7560
1230.0000;1996.0130
1231.0000;2010.8380
1232.0000;2014.3950
1233.0000;2012.4260
1234.0000;2014.7210
1235.0000;2022.7180
1236.0000;2029.5580
1237.0000;2032.1180
1238.0000;2029.3740
1239.0000;2023.6970
1240.0000;2015.8190
1241.0000;2009.1050
1242.0000;2007.6990
1243.0000;2011.5690
1244.0000;2014.7090
1245.0000;2012.3300
1246.0000;2010.8440
1247.0000;2017.5700
1248.0000;2030.6840
1249.0000;2039.4760
1250.0000;2035.3960
1251.0000;2024.6980
1252.0000;2018.7440
1253.0000;2020.0910
1254.0000;2024.0070
1255.0000;2026.4540
1256.0000;2028.6510
1257.0000;2031.3170
1258.0000;2034.2570
1259.0000;2033.9180
1260.0000;2025.5160
1261.0000;2013.8480
1262.0000;2009.9300
1263.0000;2020.5440
1264.0000;2034.9220
1265.0000;2038.1220
1266.0000;2032.3210
1267.0000;2028.4580
1268.0000;2033.8460
1269.0000;2041.6260
1270.0000;2045.8140
1271.0000;2045.4900
1272.0000;2044.7660
1273.0000;2047.7990
1274.0000;2050.5660
1275.0000;2049.8360
1276.0000;2044.9210
1277.0000;2041.4240
1278.0000;2042.4470
1279.0000;2048.5730
1280.0000;2059.8290
1281.0000;2074.8480
1282.0000;2088.1210
1283.0000;2095.7600
1284.0000;2096.2500
1285.0000;2097.5210
1286.0000;2102.9480
1287.0000;2103.2730
1288.0000;2091.1140
1289.0000;2070.7550
1290.0000;2053.7630
1291.0000;2046.8030
1292.0000;2049.6620
1293.0000;2057.2800
1294.0000;2069.8730
1295.0000;2081.3960
1296.0000;2087.1830
1297.0000;2085.6940
1298.0000;2077.5720
1299.0000;2063.5680
1300.0000;2050.8290
1301.0000;2044.7530
1302.0000;2045.6260
1303.0000;2046.7690
1304.0000;2048.7430
1305.0000;2056.6920
1306.0000;2076.3720
1307.0000;2098.1990
1308.0000;2112.3960
1309.0000;2113.1250
1310.0000;2107.6800
1311.0000;2107.5170
1312.0000;2107.9880
1313.0000;2108.9140
1314.0000;2110.4530
1315.0000;2108.7270
1316.0000;2096.7340
1317.0000;2081.8050
1318.0000;2076.9680
1319.0000;2089.7810
1320.0000;2110.9310
1321.0000;2129.9440
1322.0000;2142.6540
1323.0000;2143.3030
1324.0000;2126.3320
1325.0000;2106.3960
1326.0000;2105.2660
1327.0000;2121.0150
1328.0000;2133.7910
1329.0000;2128.7620
1330.0000;2118.7390
1331.0000;2118.7910
1332.0000;2128.1350
1333.0000;2135.2920
1334.0000;2132.9380
1335.0000;2125.3300
1336.0000;2117.9710
1337.0000;2112.3070
1338.0000;2110.9470
1339.0000;2114.0320
1340.0000;2123.1800
1341.0000;2138.9850
1342.0000;2158.5680
1343.0000;2169.4000
1344.0000;2162.4070
1345.0000;2143.9060
1346.0000;2131.1300
1347.0000;2130.0870
1348.0000;2134.1590
1349.0000;2138.3400
1350.0000;2143.0780
1351.0000;2144.9580
1352.0000;2142.4580
1353.0000;2134.9530
1354.0000;2121.5800
1355.0000;2106.1920
1356.0000;2095.4470
1357.0000;2093.3960
1358.0000;2096.8750
1359.0000;2096.4230
1360.0000;2099.1020
1361.0000;2111.7780
1362.0000;2137.6680
1363.0000;2160.4580
1364.0000;2166.1580
1365.0000;2156.1790
1366.0000;2148.2680
1367.0000;2150.4250
1368.0000;2154.2450
1369.0000;2156.6960
1370.0000;2155.9190
1371.0000;2147.8230
1372.0000;2129.5820
1373.0000;2114.5240
1374.0000;2114.6970
1375.0000;2129.1010
1376.0000;2141.6020
1377.0000;2143.3780
1378.0000;2141.0010
1379.0000;2139.0180
1380.0000;2138.2780
1381.0000;2144.1090
1382.0000;2160.9620
1383.0000;2176.0710
1384.0000;2176.0640
1385.0000;2162.5300
1386.0000;2152.6840
1387.0000;2157.7170
1388.0000;2166.6840
1389.0000;2168.0500
1390.0000;2163.4210
1391.0000;2160.7060
1392.0000;2165.0770
1393.0000;2168.9430
1394.0000;2163.8150
1395.0000;2152.1480
1396.0000;2145.7440
1397.0000;2153.1070
1398.0000;2163.4840
1399.0000;2161.9070
1400.0000;2151.0150
1401.0000;2145.2490
1402.0000;2154.1790
1403.0000;2166.8900
1404.0000;2171.0330
1405.0000;2166.7380
1406.0000;2162.1120
1407.0000;2161.3360
1408.0000;2163.8780
1409.0000;2171.7020
1410.0000;2182.6260
1411.0000;2189.0690
1412.0000;2184.9700
1413.0000;2178.4980
1414.0000;2183.8120
1415.0000;2196.7690
1416.0000;2201.3090
1417.0000;2186.2030
1418.0000;2167.1020
1419.0000;2163.2310
1420.0000;2174.0360
1421.0000;2182.2620
1422.0000;2177.8480
1423.0000;2171.3150
1424.0000;2171.3250
1425.0000;2177.9890
1426.0000;2188.4110
1427.0000;2201.0730
1428.0000;2213.1800
1429.0000;2224.2270
1430.0000;2229.8420
1431.0000;2231.3880
1432.0000;2229.4970
1433.0000;2223.7700
1434.0000;2217.6590
1435.0000;2211.9850
1436.0000;2208.1830
1437.0000;2208.0070
1438.0000;2209.0330
1439.0000;2207.7330
1440.0000;2204.0320
1441.0000;2195.5420
1442.0000;2180.7050
1443.0000;2171.9680
1444.0000;2183.5320
1445.0000;2208.6750
1446.0000;2220.1060
1447.0000;2205.3180
1448.0000;2183.6720
1449.0000;2175.1950
1450.0000;2178.2290
1451.0000;2184.4530
1452.0000;2191.5080
1453.0000;2197.4230
1454.0000;2195.7290
1455.0000;2190.5720
1456.0000;2193.3200
1457.0000;2207.7980
1458.0000;2221.3630
1459.0000;2223.0820
1460.0000;2215.8080
1461.0000;2210.3010
1462.0000;2209.7410
1463.0000;2212.0270
1464.0000;2216.5690
1465.0000;2222.5200
1466.0000;2226.8430
1467.0000;2228.1920
1468.0000;2227.4000
1469.0000;2226.0380
1470.0000;2223.9140
1471.0000;2223.5990
1472.0000;2225.4180
1473.0000;2225.4260
1474.0000;2219.1870
1475.0000;2211.8940
1476.0000;2211.1680
1477.0000;2217.4220
1478.0000;2221.1410
1479.0000;2213.1900
1480.0000;2202.4440
1481.0000;2199.7070
1482.0000;2206.1000
1483.0000;2213.8570
1484.0000;2218.1520
1485.0000;2220.3570
1486.0000;2221.3330
1487.0000;2221.0290
1488.0000;2223.5850
1489.0000;2232.2400
1490.0000;2240.1990
1491.0000;2240.1670
1492.0000;2233.2270
1493.0000;2229.1570
1494.0000;2233.1530
1495.0000;2238.7910
1496.0000;2240.0200
1497.0000;2238.1530
1498.0000;2237.8590
1499.0000;2241.1760
1500.0000;2243.2260
1501.0000;2238.9350
1502.0000;2232.2180
1503.0000;2231.0430
1504.0000;2238.5830
1505.0000;2244.8850
1506.0000;2238.7560
1507.0000;2229.0590
1508.0000;2230.3340
1509.0000;2245.7230
1510.0000;2257.4550
1511.0000;2249.4930
1512.0000;2234.5300
1513.0000;2232.5810
1514.0000;2245.5560
1515.0000;2258.4450
1516.0000;2259.6600
1517.0000;2257.3240
1518.0000;2264.0190
1519.0000;2275.6380
1520.0000;2278.5780
1521.0000;2262.6460
1522.0000;2242.9690
1523.0000;2236.8590
1524.0000;2244.8180
1525.0000;2257.1940
1526.0000;2269.1010
1527.0000;2280.2740
1528.0000;2291.4900
1529.0000;2297.8340
1530.0000;2300.1380
1531.0000;2297.7300
1532.0000;2289.5540
1533.0000;2273.8530
1534.0000;2259.7140
1535.0000;2261.9360
1536.0000;2283.8000
1537.0000;2305.0950
1538.0000;2305.8960
1539.0000;2294.5720
1540.0000;2286.2010
1541.0000;2282.7290
1542.0000;2282.5260
1543.0000;2286.5900
1544.0000;2291.0480
1545.0000;2288.8510
1546.0000;2280.3300
1547.0000;2271.0730
1548.0000;2264.3020
1549.0000;2260.3000
1550.0000;2257.3620
1551.0000;2257.4360
1552.0000;2258.6160
1553.0000;2260.1520
1554.0000;2262.2110
1555.0000;2262.8080
1556.0000;2263.8890
1557.0000;2268.9800
1558.0000;2278.4550
1559.0000;2288.7110
1560.0000;2299.8800
1561.0000;2305.8310
1562.0000;2304.5410
1563.0000;2294.3290
1564.0000;2280.9510
1565.0000;2269.5750
1566.0000;2260.0840
1567.0000;2249.9840
1568.0000;2242.8910
1569.0000;2238.1010
1570.0000;2234.6060
1571.0000;2237.7180
1572.0000;2250.0180
1573.0000;2267.2090
1574.0000;2277.1730
1575.0000;2273.8620
1576.0000;2268.8450
1577.0000;2276.7630
1578.0000;2288.5400
1579.0000;2295.4470
1580.0000;2293.9710
1581.0000;2287.9480
1582.0000;2279.3260
1583.0000;2271.9860
1584.0000;2271.8470
1585.0000;2280.1200
1586.0000;2291.2870
1587.0000;2302.0820
1588.0000;2309.9340
1589.0000;2312.2380
1590.0000;2308.7890
1591.0000;2307.5520
1592.0000;2311.6280
1593.0000;2314.7450
1594.0000;2311.7060
1595.0000;2305.7810
1596.0000;2303.0180
1597.0000;2304.8710
1598.0000;2307.0780
1599.0000;2307.0780
1600.0000;2304.4560
1601.0000;2296.6110
1602.0000;2286.1090
1603.0000;2281.8220
1604.0000;2289.7100
1605.0000;2302.0110
1606.0000;2308.0680
1607.0000;2309.2310
1608.0000;2311.3260
1609.0000;2315.5750
1610.0000;2323.5410
1611.0000;2341.2690
1612.0000;2358.2140
1613.0000;2363.3510
1614.0000;2352.7040
1615.0000;2341.5950
1616.0000;2343.6120
1617.0000;2347.5380
1618.0000;2339.8920
1619.0000;2325.0250
1620.0000;2317.5230
1621.0000;2326.1600
1622.0000;2337.8100
1623.0000;2334.9930
1624.0000;2325.4580
1625.0000;2324.3210
1626.0000;2335.3950
1627.0000;2343.6150
1628.0000;2335.8790
1629.0000;2321.3530
1630.0000;2312.2270
1631.0000;2311.2680
1632.0000;2313.1480
1633.0000;2315.3140
1634.0000;2317.4620
1635.0000;2317.5280
1636.0000;2314.2570
1637.0000;2305.5000
1638.0000;2291.4400
1639.0000;2280.5410
1640.0000;2281.0880
1641.0000;2288.9510
1642.0000;2289.4330
1643.0000;2282.1560
1644.0000;2279.9650
1645.0000;2291.1100
1646.0000;2306.6050
1647.0000;2318.3090
1648.0000;2323.0760
1649.0000;2323.4490
1650.0000;2319.2200
1651.0000;2314.5620
1652.0000;2315.6400
1653.0000;2320.9270
1654.0000;2329.3640
1655.0000;2338.5450
1656.0000;2340.9740
1657.0000;2330.8200
1658.0000;2314.0800
1659.0000;2298.8150
1660.0000;2288.8270
1661.0000;2284.1990
1662.0000;2286.3730
1663.0000;2289.2670
1664.0000;2280.4280
1665.0000;2268.5110
1666.0000;2264.7850
1667.0000;2272.3950
1668.0000;2283.6090
1669.0000;2292.5330
1670.0000;2298.4120
1671.0000;2300.6530
1672.0000;2297.0950
1673.0000;2290.4280
1674.0000;2281.9060
1675.0000;2273.3370
1676.0000;2264.3810
1677.0000;2260.2390
1678.0000;2264.1530
1679.0000;2277.0050
1680.0000;2289.6350
1681.0000;2295.3170
1682.0000;2296.2800
1683.0000;2298.6630
1684.0000;2300.5010
1685.0000;2301.9370
1686.0000;2302.9090
1687.0000;2304.4770
1688.0000;2311.3660
1689.0000;2316.4170
1690.0000;2311.1170
1691.0000;2294.5080
1692.0000;2278.9160
1693.0000;2271.7400
1694.0000;2274.2170
1695.0000;2285.4920
1696.0000;2301.7200
1697.0000;2309.4530
1698.0000;2301.3580
1699.0000;2290.4000
1700.0000;2292.3780
1701.0000;2296.6370
1702.0000;2289.6610
1703.0000;2273.0360
1704.0000;2260.7550
1705.0000;2260.5580
1706.0000;2268.1320
1707.0000;2277.0990
1708.0000;2285.5340
1709.0000;2286.7530
1710.0000;2278.1460
1711.0000;2269.6940
1712.0000;2270.0990
1713.0000;2275.5360
1714.0000;2280.8580
1715.0000;2285.3340
1716.0000;2288.5290
1717.0000;2289.8030
1718.0000;2287.3250
1719.0000;2280.0390
1720.0000;2271.1620
1721.0000;2265.4220
1722.0000;2265.9660
1723.0000;2275.2080
1724.0000;2295.7400
1725.0000;2315.5380
1726.0000;2320.0150
1727.0000;2310.6190
1728.0000;2307.3960
1729.0000;2315.6310
1730.0000;2324.2960
1731.0000;2326.9000
1732.0000;2324.9090
1733.0000;2322.8190
1734.0000;2319.5500
1735.0000;2312.9400
1736.0000;2302.5960
1737.0000;2292.0390
1738.0000;2282.8580
1739.0000;2278.4080
1740.0000;2277.8980
1741.0000;2281.8110
1742.0000;2283.0550
1743.0000;2274.1180
1744.0000;2266.4150
1745.0000;2271.2010
1746.0000;2284.6450
1747.0000;2293.5640
1748.0000;2292.9300
1749.0000;2290.0300
1750.0000;2291.1940
1751.0000;2292.9320
1752.0000;2293.5960
1753.0000;2293.7210
1754.0000;2296.0210
1755.0000;2301.4200
1756.0000;2308.0490
1757.0000;2315.7290
1758.0000;2320.7220
1759.0000;2320.8770
1760.0000;2315.2300
1761.0000;2310.1790
1762.0000;2309.9450
1763.0000;2310.6460
1764.0000;2306.2170
1765.0000;2302.1540
1766.0000;2307.9880
1767.0000;2323.7420
1768.0000;2332.0650
1769.0000;2318.8420
1770.0000;2300.1550
1771.0000;2296.5250
1772.0000;2304.3070
1773.0000;2306.2730
1774.0000;2297.9210
1775.0000;2294.9280
1776.0000;2311.2910
1777.0000;2329.2130
1778.0000;2324.2500
1779.0000;2299.6630
1780.0000;2282.3810
1781.0000;2283.6460
1782.0000;2291.0000
1783.0000;2292.3160
1784.0000;2292.0410
1785.0000;2289.7400
1786.0000;2286.2730
1787.0000;2286.3700
1788.0000;2292.7740
1789.0000;2299.4780
1790.0000;2301.0770
1791.0000;2298.7580
1792.0000;2296.8560
1793.0000;2295.8870
1794.0000;2295.6830
1795.0000;2296.7790
1796.0000;2297.2850
1797.0000;2292.3870
1798.0000;2288.2340
1799.0000;2295.6660
1800.0000;2314.7050
1801.0000;2330.6250
1802.0000;2334.0600
1803.0000;2324.5560
1804.0000;2302.8430
1805.0000;2277.1180
1806.0000;2263.9520
1807.0000;2271.4570
1808.0000;2284.5700
1809.0000;2291.6920
1810.0000;2296.8340
1811.0000;2302.9910
1812.0000;2305.5620
1813.0000;2300.3290
1814.0000;2286.1670
1815.0000;2274.1770
1816.0000;2274.4050
1817.0000;2278.8310
1818.0000;2274.7490
1819.0000;2265.3950
1820.0000;2258.1070
1821.0000;2255.4110
1822.0000;2252.6960
1823.0000;2243.9680
1824.0000;2237.7090
1825.0000;2240.2460
1826.0000;2249.9270
1827.0000;2254.9360
1828.0000;2251.0110
1829.0000;2243.4370
1830.0000;2235.1640
1831.0000;2230.1300
1832.0000;2232.7820
1833.0000;2242.9690
1834.0000;2252.2430
1835.0000;2256.6350
1836.0000;2261.2740
1837.0000;2271.9480
1838.0000;2280.7040
1839.0000;2283.2960
1840.0000;2279.1210
1841.0000;2277.2110
1842.0000;2280.7280
1843.0000;2284.5980
1844.0000;2285.9380
1845.0000;2285.4480
1846.0000;2284.7880
1847.0000;2283.6140
1848.0000;2281.5830
1849.0000;2278.9330
1850.0000;2280.5650
1851.0000;2290.3000
1852.0000;2303.3960
1853.0000;2314.3970
1854.0000;2320.2940
1855.0000;2322.7190
1856.0000;2321.0050
1857.0000;2317.2230
1858.0000;2315.6750
1859.0000;2313.6910
1860.0000;2309.8840
1861.0000;2304.6790
1862.0000;2296.8330
1863.0000;2287.4030
1864.0000;2283.4310
1865.0000;2290.6690
1866.0000;2300.2430
1867.0000;2298.4310
1868.0000;2287.4920
1869.0000;2275.9130
1870.0000;2267.5210
1871.0000;2265.9490
1872.0000;2274.0260
1873.0000;2286.6310
1874.0000;2293.5620
1875.0000;2295.5570
1876.0000;2299.1740
1877.0000;2304.4030
1878.0000;2308.5840
1879.0000;2310.7860
1880.0000;2311.6310
1881.0000;2315.1410
1882.0000;2318.0220
1883.0000;2316.3690
1884.0000;2310.1610
1885.0000;2306.7780
1886.0000;2311.0480
1887.0000;2317.1830
1888.0000;2317.7280
1889.0000;2316.4850
1890.0000;2321.9120
1891.0000;2332.2310
1892.0000;2336.2600
1893.0000;2327.6620
1894.0000;2316.0150
1895.0000;2312.9310
1896.0000;2311.9530
1897.0000;2300.6160
1898.0000;2284.0440
1899.0000;2277.2020
1900.0000;2287.3330
1901.0000;2300.0780
1902.0000;2300.1580
1903.0000;2293.6560
1904.0000;2285.9020
1905.0000;2279.7450
1906.0000;2279.5490
1907.0000;2287.9910
1908.0000;2303.1010
1909.0000;2325.0550
1910.0000;2342.2760
1911.0000;2342.1250
1912.0000;2328.0690
1913.0000;2323.5470
1914.0000;2333.1800
1915.0000;2339.2930
1916.0000;2330.2190
1917.0000;2320.6510
1918.0000;2326.0350
1919.0000;2338.9080
1920.0000;2344.3740
1921.0000;2340.2130
1922.0000;2336.5910
1923.0000;2338.6580
1924.0000;2340.0170
1925.0000;2333.8750
1926.0000;2328.0510
1927.0000;2333.1590
1928.0000;2346.8170
1929.0000;2355.2710
1930.0000;2352.0560
1931.0000;2345.7260
1932.0000;2344.1120
1933.0000;2343.6980
1934.0000;2341.3330
1935.0000;2339.7280
1936.0000;2344.5980
1937.0000;2356.0570
1938.0000;2359.3960
1939.0000;2343.4270
1940.0000;2326.9130
1941.0000;2331.5550
1942.0000;2348.6690
1943.0000;2357.3590
1944.0000;2355.3500
1945.0000;2352.1680
1946.0000;2351.3250
1947.0000;2353.7300
1948.0000;2362.4360
1949.0000;2372.9640
1950.0000;2379.6970
1951.0000;2380.4590
1952.0000;2377.6260
1953.0000;2371.9040
1954.0000;2370.6710
1955.0000;2381.7800
1956.0000;2392.9200
1957.0000;2389.0630
1958.0000;2376.4400
1959.0000;2371.9300
1960.0000;2378.5210
1961.0000;2389.6540
1962.0000;2401.9860
1963.0000;2409.8000
1964.0000;2407.6910
1965.0000;2399.5320
1966.0000;2399.3120
1967.0000;2404.3670
1968.0000;2402.3670
1969.0000;2390.0020
1970.0000;2380.6980
1971.0000;2384.6760
1972.0000;2392.5630
1973.0000;2390.0580
1974.0000;2383.6150
1975.0000;2385.4980
1976.0000;2396.7080
1977.0000;2407.8060
1978.0000;2413.8790
1979.0000;2413.6000
1980.0000;2404.1680
1981.0000;2394.7450
1982.0000;2404.7450
1983.0000;2427.1470
1984.0000;2433.9380
1985.0000;2416.6100
1986.0000;2398.9400
1987.0000;2398.1220
1988.0000;2401.0360
1989.0000;2390.7790
1990.0000;2379.6760
1991.0000;2384.4440
1992.0000;2404.8340
1993.0000;2419.5320
1994.0000;2417.7850
1995.0000;2414.6990
1996.0000;2426.8170
1997.0000;2436.9940
1998.0000;2428.2640
1999.0000;2407.8940
2000.0000;2400.6480
2001.0000;2411.4850
2002.0000;2415.0000
2003.0000;2390.6350
2004.0000;2399.7270
2005.0000;2526.6230
2006.0000;2658.2300
2007.0000;2636.4460
2008.0000;2479.3060
2009.0000;2376.9830
2010.0000;2398.8220
2011.0000;2445.2060
2012.0000;2455.3840
2013.0000;2456.0620
2014.0000;2452.1680
2015.0000;2443.1880
2016.0000;2439.5180
2017.0000;2440.3750
2018.0000;2433.2600
2019.0000;2413.7710
2020.0000;2398.6170
2021.0000;2398.2870
2022.0000;2405.9840
2023.0000;2405.3630
2024.0000;2403.7860
2025.0000;2413.4830
2026.0000;2432.4680
2027.0000;2444.9610
2028.0000;2442.5070
2029.0000;2433.8670
2030.0000;2429.5790
2031.0000;2426.7500
2032.0000;2426.4210
2033.0000;2427.3380
2034.0000;2421.6390
2035.0000;2410.6280
2036.0000;2409.0910
2037.0000;2425.9870
2038.0000;2441.9980
2039.0000;2440.6400
2040.0000;2427.9860
2041.0000;2418.5820
2042.0000;2410.2710
2043.0000;2394.6040
2044.0000;2375.3740
2045.0000;2368.8700
2046.0000;2385.3200
2047.0000;2405.6000
2048.0000;2406.5200
2049.0000;2400.0310
2050.0000;2406.2050
2051.0000;2419.0810
2052.0000;2422.4180
2053.0000;2413.2230
2054.0000;2406.8440
2055.0000;2412.7660
2056.0000;2423.4000
2057.0000;2433.2970
2058.0000;2439.1820
2059.0000;2439.3210
2060.0000;2431.5220
2061.0000;2416.7620
2062.0000;2399.2540
2063.0000;2394.3750
2064.0000;2412.8800
2065.0000;2435.4000
2066.0000;2437.9480
2067.0000;2430.4400
2068.0000;2430.9630
2069.0000;2435.7240
2070.0000;2436.5310
2071.0000;2431.6520
2072.0000;2425.3210
2073.0000;2419.8880
2074.0000;2415.0260
2075.0000;2408.0570
2076.0000;2404.9420
2077.0000;2410.9090
2078.0000;2421.9740
2079.0000;2422.1510
2080.0000;2409.4060
2081.0000;2398.9040
2082.0000;2399.2080
2083.0000;2406.1020
2084.0000;2415.1450
2085.0000;2425.3270
2086.0000;2434.9600
2087.0000;2440.2350
2088.0000;2441.2870
2089.0000;2437.4000
2090.0000;2434.4230
2091.0000;2435.6110
2092.0000;2439.4830
2093.0000;2446.1330
2094.0000;2451.3080
2095.0000;2451.3630
2096.0000;2445.7900
2097.0000;2437.5340
2098.0000;2429.1540
2099.0000;2425.1920
2100.0000;2428.7620
2101.0000;2434.2710
2102.0000;2436.0280
2103.0000;2437.7430
2104.0000;2443.2420
2105.0000;2448.9710
2106.0000;2453.6390
2107.0000;2453.4690
2108.0000;2443.3680
2109.0000;2422.8690
2110.0000;2407.4300
2111.0000;2407.6600
2112.0000;2415.2000
2113.0000;2416.4340
2114.0000;2417.6120
2115.0000;2422.8960
2116.0000;2428.8160
2117.0000;2428.1540
2118.0000;2419.8520
2119.0000;2413.4870
2120.0000;2414.2760
2121.0000;2417.4670
2122.0000;2417.9110
2123.0000;2420.1760
2124.0000;2427.7590
2125.0000;2437.9830
2126.0000;2447.6710
2127.0000;2453.8720
2128.0000;2458.2150
2129.0000;2459.8140
2130.0000;2455.7640
2131.0000;2444.8860
2132.0000;2435.7800
2133.0000;2441.6620
2134.0000;2450.2920
2135.0000;2436.6650
2136.0000;2410.5510
2137.0000;2399.5050
2138.0000;2410.9090
2139.0000;2428.3280
2140.0000;2443.4500
2141.0000;2448.7710
2142.0000;2436.5660
2143.0000;2415.9490
2144.0000;2403.4820
2145.0000;2399.0880
2146.0000;2394.7900
2147.0000;2393.5630
2148.0000;2397.9290
2149.0000;2407.6360
2150.0000;2414.3680
2151.0000;2411.9840
2152.0000;2406.2000
2153.0000;2402.9510
2154.0000;2403.1560
2155.0000;2409.6150
2156.0000;2419.1820
2157.0000;2423.3410
2158.0000;2420.1230
2159.0000;2416.2440
2160.0000;2414.7850
2161.0000;2415.7810
2162.0000;2420.3680
2163.0000;2425.2610
2164.0000;2427.2820
2165.0000;2425.1880
2166.0000;2418.4400
2167.0000;2409.6700
2168.0000;2408.1320
2169.0000;2415.0140
2170.0000;2417.1650
2171.0000;2407.9920
2172.0000;2401.4840
2173.0000;2409.7820
2174.0000;2418.7450
2175.0000;2411.4570
2176.0000;2397.0220
2177.0000;2394.5810
2178.0000;2401.3700
2179.0000;2398.8510
2180.0000;2384.7650
2181.0000;2375.2500
2182.0000;2378.7730
2183.0000;2387.8910
2184.0000;2396.0060
2185.0000;2402.4790
2186.0000;2405.5520
2187.0000;2405.6300
2188.0000;2411.9940
2189.0000;2419.2680
2190.0000;2410.1660
2191.0000;2383.2440
2192.0000;2371.0380
2193.0000;2391.3250
2194.0000;2412.6420
2195.0000;2406.2150
2196.0000;2393.1630
2197.0000;2397.7210
2198.0000;2411.0940
2199.0000;2421.1240
2200.0000;2423.9690
2201.0000;2419.7910
2202.0000;2408.2520
2203.0000;2397.4670
2204.0000;2392.7280
2205.0000;2385.6480
2206.0000;2366.0890
2207.0000;2351.2350
2208.0000;2354.4100
2209.0000;2368.5280
2210.0000;2370.6560
2211.0000;2363.5100
2212.0000;2359.5580
2213.0000;2361.9550
2214.0000;2371.7020
2215.0000;2388.7970
2216.0000;2400.1060
2217.0000;2395.6920
2218.0000;2387.0900
2219.0000;2393.0260
2220.0000;2401.8980
2221.0000;2400.8860
2222.0000;2390.8570
2223.0000;2376.1030
2224.0000;2362.0930
2225.0000;2361.6820
2226.0000;2379.2180
2227.0000;2392.2570
2228.0000;2383.2980
2229.0000;2370.6190
2230.0000;2372.9720
2231.0000;2378.4090
2232.0000;2371.5370
2233.0000;2360.0840
2234.0000;2359.3800
2235.0000;2367.6490
2236.0000;2365.0990
2237.0000;2349.6420
2238.0000;2349.6790
2239.0000;2379.3590
2240.0000;2402.1460
2241.0000;2388.6700
2242.0000;2364.0290
2243.0000;2359.1090
2244.0000;2363.0950
2245.0000;2355.9380
2246.0000;2344.9430
2247.0000;2344.7940
2248.0000;2356.7800
2249.0000;2366.2500
2250.0000;2367.1080
2251.0000;2363.9870
2252.0000;2358.8110
2253.0000;2356.4250
2254.0000;2365.1960
2255.0000;2372.4180
2256.0000;2360.4050
2257.0000;2341.3290
2258.0000;2339.4570
2259.0000;2352.1290
2260.0000;2356.0750
2261.0000;2347.6390
2262.0000;2338.9960
2263.0000;2335.1070
2264.0000;2335.5850
2265.0000;2340.2700
2266.0000;2348.2310
2267.0000;2359.1160
2268.0000;2364.5910
2269.0000;2356.8750
2270.0000;2339.8360
2271.0000;2325.6390
2272.0000;2320.1610
2273.0000;2327.0690
2274.0000;2346.1140
2275.0000;2361.0840
2276.0000;2362.5540
2277.0000;2359.9190
2278.0000;2361.2680
2279.0000;2359.4620
2280.0000;2349.5380
2281.0000;2341.2970
2282.0000;2347.9350
2283.0000;2362.3030
2284.0000;2364.0560
2285.0000;2354.8770
2286.0000;2353.9160
2287.0000;2364.0790
2288.0000;2372.2610
2289.0000;2372.3580
2290.0000;2374.0340
2291.0000;2384.1100
2292.0000;2391.3030
2293.0000;2386.5100
2294.0000;2377.0750
2295.0000;2376.2030
2296.0000;2379.1920
2297.0000;2375.8780
2298.0000;2368.2310
2299.0000;2363.6980
2300.0000;2363.9450
2301.0000;2364.3990
2302.0000;2363.7440
2303.0000;2364.7770
2304.0000;2368.1670
2305.0000;2374.3370
2306.0000;2384.1480
2307.0000;2392.9500
2308.0000;2398.8550
2309.0000;2400.0390
2310.0000;2402.7480
2311.0000;2401.5630
2312.0000;2387.8970
2313.0000;2365.8990
2314.0000;2357.6080
2315.0000;2369.0140
2316.0000;2378.2500
2317.0000;2373.5330
2318.0000;2362.9120
2319.0000;2351.1650
2320.0000;2340.7350
2321.0000;2332.4510
2322.0000;2332.4030
2323.0000;2341.7400
2324.0000;2354.8490
2325.0000;2356.7540
2326.0000;2349.1860
2327.0000;2348.1820
2328.0000;2355.1210
2329.0000;2360.7710
2330.0000;2361.4520
2331.0000;2358.5640
2332.0000;2352.2550
2333.0000;2350.3220
2334.0000;2360.8630
2335.0000;2370.4000
2336.0000;2363.8120
2337.0000;2350.6650
2338.0000;2346.7430
2339.0000;2349.3790
2340.0000;2350.3020
2341.0000;2349.3720
2342.0000;2346.8730
2343.0000;2342.4540
2344.0000;2333.4280
2345.0000;2321.2750
2346.0000;2322.0060
2347.0000;2344.2690
2348.0000;2364.9350
2349.0000;2365.1460
2350.0000;2354.0000
2351.0000;2342.7480
2352.0000;2335.5030
2353.0000;2341.5310
2354.0000;2356.0160
2355.0000;2365.2960
2356.0000;2367.5190
2357.0000;2367.5080
2358.0000;2366.5310
2359.0000;2373.9370
2360.0000;2390.8130
2361.0000;2399.0510
2362.0000;2389.6250
2363.0000;2369.6190
2364.0000;2344.1800
2365.0000;2330.4030
2366.0000;2345.5670
2367.0000;2367.7510
2368.0000;2363.1110
2369.0000;2343.6700
2370.0000;2331.8190
2371.0000;2328.9510
2372.0000;2330.8670
2373.0000;2337.7040
2374.0000;2342.6960
2375.0000;2343.7940
2376.0000;2345.9380
2377.0000;2349.8810
2378.0000;2348.4980
2379.0000;2338.2860
2380.0000;2330.6200
2381.0000;2333.8580
2382.0000;2344.4800
2383.0000;2359.3660
2384.0000;2369.8260
2385.0000;2365.7520
2386.0000;2352.3140
2387.0000;2347.7930
2388.0000;2350.0030
2389.0000;2347.4250
2390.0000;2341.1670
2391.0000;2338.8350
2392.0000;2341.6140
2393.0000;2342.9950
2394.0000;2340.4480
2395.0000;2333.4400
2396.0000;2321.2660
2397.0000;2317.3160
2398.0000;2333.5600
2399.0000;2348.2660
2400.0000;2336.3270
2401.0000;2320.3210
2402.0000;2329.7500
2403.0000;2352.2480
2404.0000;2364.7940
2405.0000;2366.7250
2406.0000;2365.8850
2407.0000;2361.2840
2408.0000;2356.9910
2409.0000;2354.7070
2410.0000;2355.7350
2411.0000;2360.2450
2412.0000;2359.1940
2413.0000;2348.6420
2414.0000;2343.2340
2415.0000;2353.1870
2416.0000;2364.4930
2417.0000;2365.1570
2418.0000;2361.0000
2419.0000;2360.2380
2420.0000;2359.2320
2421.0000;2357.4520
2422.0000;2353.2530
2423.0000;2340.9810
2424.0000;2328.1240
2425.0000;2328.3010
2426.0000;2340.5220
2427.0000;2342.4370
2428.0000;2331.3820
2429.0000;2324.6050
2430.0000;2327.1220
2431.0000;2329.7320
2432.0000;2328.3480
2433.0000;2328.7880
2434.0000;2333.6270
2435.0000;2339.7670
2436.0000;2346.0510
2437.0000;2345.6610
2438.0000;2331.7490
2439.0000;2315.9580
2440.0000;2315.0520
2441.0000;2325.2190
2442.0000;2333.4540
2443.0000;2338.7620
2444.0000;2340.1950
2445.0000;2335.8710
2446.0000;2327.4270
2447.0000;2317.4390
2448.0000;2310.8100
2449.0000;2310.7480
2450.0000;2313.0040
2451.0000;2315.7720
2452.0000;2318.1290
2453.0000;2318.6700
2454.0000;2318.4490
2455.0000;2317.6120
2456.0000;2320.8820
2457.0000;2333.3380
2458.0000;2344.8000
2459.0000;2348.2730
2460.0000;2338.9120
2461.0000;2317.5220
2462.0000;2291.5290
2463.0000;2272.8100
2464.0000;2269.4270
2465.0000;2277.6950
2466.0000;2296.7190
2467.0000;2312.2610
2468.0000;2318.3300
2469.0000;2315.8840
2470.0000;2305.6170
2471.0000;2304.9490
2472.0000;2318.9970
2473.0000;2325.5960
2474.0000;2315.2070
2475.0000;2296.3410
2476.0000;2274.7280
2477.0000;2265.6920
2478.0000;2282.4050
2479.0000;2299.2570
2480.0000;2285.2860
2481.0000;2267.5520
2482.0000;2276.9790
2483.0000;2298.4690
2484.0000;2311.8680
2485.0000;2315.4540
2486.0000;2311.5010
2487.0000;2301.9900
2488.0000;2300.1910
2489.0000;2305.1520
2490.0000;2307.7740
2491.0000;2307.3020
2492.0000;2305.2820
2493.0000;2303.5090
2494.0000;2310.2790
2495.0000;2325.6390
2496.0000;2332.0970
2497.0000;2322.6730
2498.0000;2319.0740
2499.0000;2332.5850
2500.0000;2341.9860
2501.0000;2334.6390
2502.0000;2322.4610
2503.0000;2315.8340
2504.0000;2311.0290
2505.0000;2302.8390
2506.0000;2300.7340
2507.0000;2313.0900
2508.0000;2325.4940
2509.0000;2314.0420
2510.0000;2292.5620
2511.0000;2287.1290
2512.0000;2293.4320
2513.0000;2293.8280
2514.0000;2290.5510
2515.0000;2288.9580
2516.0000;2289.0120
2517.0000;2288.4200
2518.0000;2285.8980
2519.0000;2277.0640
2520.0000;2263.2310
2521.0000;2253.2870
2522.0000;2252.2930
2523.0000;2253.8940
2524.0000;2255.5600
2525.0000;2260.5070
2526.0000;2268.3350
2527.0000;2276.9690
2528.0000;2284.6270
2529.0000;2290.2500
2530.0000;2296.2200
2531.0000;2293.1870
2532.0000;2275.2510
2533.0000;2257.9700
2534.0000;2258.4100
2535.0000;2269.3700
2536.0000;2277.8040
2537.0000;2280.5400
2538.0000;2271.8270
2539.0000;2255.5030
2540.0000;2238.6740
2541.0000;2231.2920
2542.0000;2242.0270
2543.0000;2266.4010
2544.0000;2285.1430
2545.0000;2290.3340
2546.0000;2283.4230
2547.0000;2265.7750
2548.0000;2256.8120
2549.0000;2260.3350
2550.0000;2259.9130
2551.0000;2253.6380
2552.0000;2254.5370
2553.0000;2265.5600
2554.0000;2273.0870
2555.0000;2271.1620
2556.0000;2269.9030
2557.0000;2274.3410
2558.0000;2272.4530
2559.0000;2258.1870
2560.0000;2252.6010
2561.0000;2272.1890
2562.0000;2285.9360
2563.0000;2265.8660
2564.0000;2240.5350
2565.0000;2234.3150
2566.0000;2240.9260
2567.0000;2251.5420
2568.0000;2261.3090
2569.0000;2258.3360
2570.0000;2249.5060
2571.0000;2248.2580
2572.0000;2251.7840
2573.0000;2256.0620
2574.0000;2259.6650
2575.0000;2260.0180
2576.0000;2257.3300
2577.0000;2253.6200
2578.0000;2252.1440
2579.0000;2260.4380
2580.0000;2273.6200
2581.0000;2273.3160
2582.0000;2260.4980
2583.0000;2257.4450
2584.0000;2263.8220
2585.0000;2257.5080
2586.0000;2239.4240
2587.0000;2237.7730
2588.0000;2258.0030
2589.0000;2274.5730
2590.0000;2277.7870
2591.0000;2276.8460
2592.0000;2273.3430
2593.0000;2261.8020
2594.0000;2243.1240
2595.0000;2232.7830
2596.0000;2239.5250
2597.0000;2251.5910
2598.0000;2260.6090
2599.0000;2258.7190
2600.0000;2239.0750
2601.0000;2222.4800
2602.0000;2226.7880
2603.0000;2235.7290
2604.0000;2233.8160
2605.0000;2229.6260
2606.0000;2227.1360
2607.0000;2229.6080
2608.0000;2240.9850
2609.0000;2253.0270
2610.0000;2258.4690
2611.0000;2254.7520
2612.0000;2242.7820
2613.0000;2230.8280
2614.0000;2234.8650
2615.0000;2244.0740
2616.0000;2237.7960
2617.0000;2226.9650
2618.0000;2226.7490
2619.0000;2235.1700
2620.0000;2245.5880
2621.0000;2254.6380
2622.0000;2256.1470
2623.0000;2253.7350
2624.0000;2265.6730
2625.0000;2280.6860
2626.0000;2274.1210
2627.0000;2251.6450
2628.0000;2241.9030
2629.0000;2246.8290
2630.0000;2251.5600
2631.0000;2253.9090
2632.0000;2248.4590
2633.0000;2237.7740
2634.0000;2237.2240
2635.0000;2247.4430
2636.0000;2254.9370
2637.0000;2255.5490
2638.0000;2252.0760
2639.0000;2244.8940
2640.0000;2237.2590
2641.0000;2231.4650
2642.0000;2223.2500
2643.0000;2214.2210
2644.0000;2212.1360
2645.0000;2219.2820
2646.0000;2228.7980
2647.0000;2235.9550
2648.0000;2238.6250
2649.0000;2234.8880
2650.0000;2229.8530
2651.0000;2226.4370
2652.0000;2222.7800
2653.0000;2219.0800
2654.0000;2220.2300
2655.0000;2227.8400
2656.0000;2232.6900
2657.0000;2229.7750
2658.0000;2229.3490
2659.0000;2236.9380
2660.0000;2239.4930
2661.0000;2230.0690
2662.0000;2219.8120
2663.0000;2216.8090
2664.0000;2217.3580
2665.0000;2219.5990
2666.0000;2217.7920
2667.0000;2206.7580
2668.0000;2196.8660
2669.0000;2195.6360
2670.0000;2193.0540
2671.0000;2179.8230
2672.0000;2170.3530
2673.0000;2173.1020
2674.0000;2182.4910
2675.0000;2191.9870
2676.0000;2196.4420
2677.0000;2191.1070
2678.0000;2180.9070
2679.0000;2171.8330
2680.0000;2170.4380
2681.0000;2184.4060
2682.0000;2194.6720
2683.0000;2180.4480
2684.0000;2165.6780
2685.0000;2174.8100
2686.0000;2189.0260
2687.0000;2189.5420
2688.0000;2182.2130
2689.0000;2173.1370
2690.0000;2164.0950
2691.0000;2159.5400
2692.0000;2157.2480
2693.0000;2151.1260
2694.0000;2145.7560
2695.0000;2141.7690
2696.0000;2139.7810
2697.0000;2134.8430
2698.0000;2136.3200
2699.0000;2151.7310
2700.0000;2168.4960
2701.0000;2172.0810
2702.0000;2168.8890
2703.0000;2174.7930
2704.0000;2174.3830
2705.0000;2153.6100
2706.0000;2133.1890
2707.0000;2137.6050
2708.0000;2150.4310
2709.0000;2144.2490
2710.0000;2136.1830
2711.0000;2142.5950
2712.0000;2153.7650
2713.0000;2158.2920
2714.0000;2159.6870
2715.0000;2163.7760
2716.0000;2166.8690
2717.0000;2168.7860
2718.0000;2169.2220
2719.0000;2169.9510
2720.0000;2171.0520
2721.0000;2174.3730
2722.0000;2177.2650
2723.0000;2178.8520
2724.0000;2176.2710
2725.0000;2166.1970
2726.0000;2159.1420
2727.0000;2166.0530
2728.0000;2177.7430
2729.0000;2181.9700
2730.0000;2180.5900
2731.0000;2177.9380
2732.0000;2171.4570
2733.0000;2161.2620
2734.0000;2153.8890
2735.0000;2154.7590
2736.0000;2159.5820
2737.0000;2161.1600
2738.0000;2157.7690
2739.0000;2145.7550
2740.0000;2136.1070
2741.0000;2141.1250
2742.0000;2146.6740
2743.0000;2136.1430
2744.0000;2125.0750
2745.0000;2128.2080
2746.0000;2131.3180
2747.0000;2119.3300
2748.0000;2110.7100
2749.0000;2118.4720
2750.0000;2132.6050
2751.0000;2143.5380
2752.0000;2143.4830
2753.0000;2125.1840
2754.0000;2108.2990
2755.0000;2110.3250
2756.0000;2117.1280
2757.0000;2115.5470
2758.0000;2117.1770
2759.0000;2127.5150
2760.0000;2136.8770
2761.0000;2138.3040
2762.0000;2136.0080
2763.0000;2133.5060
2764.0000;2133.0190
2765.0000;2137.0810
2766.0000;2141.5000
2767.0000;2143.3910
2768.0000;2138.4520
2769.0000;2125.4390
2770.0000;2116.3430
2771.0000;2118.8230
2772.0000;2124.7450
2773.0000;2129.0830
2774.0000;2128.6200
2775.0000;2121.3340
2776.0000;2117.7920
2777.0000;2122.0330
2778.0000;2120.9770
2779.0000;2111.2900
2780.0000;2109.6560
2781.0000;2120.3160
2782.0000;2128.3450
2783.0000;2127.5720
2784.0000;2122.1170
2785.0000;2113.8450
2786.0000;2109.5970
2787.0000;2111.8820
2788.0000;2114.9510
2789.0000;2117.1180
2790.0000;2117.3720
2791.0000;2116.0230
2792.0000;2117.8030
2793.0000;2122.3270
2794.0000;2124.7330
2795.0000;2124.2720
2796.0000;2123.7880
2797.0000;2123.9790
2798.0000;2127.8200
2799.0000;2131.8590
2800.0000;2125.4720
2801.0000;2115.1700
2802.0000;2121.8810
2803.0000;2135.3300
2804.0000;2122.5530
2805.0000;2098.8620
2806.0000;2102.3890
2807.0000;2120.4220
2808.0000;2119.3360
2809.0000;2108.8290
2810.0000;2104.9690
2811.0000;2108.5480
2812.0000;2122.8290
2813.0000;2134.5440
2814.0000;2123.7600
2815.0000;2107.4950
2816.0000;2113.0890
2817.0000;2122.0940
2818.0000;2111.7930
2819.0000;2101.9520
2820.0000;2109.3440
2821.0000;2125.4590
2822.0000;2141.3080
2823.0000;2149.1190
2824.0000;2143.1050
2825.0000;2130.7900
2826.0000;2121.1160
2827.0000;2116.7940
2828.0000;2120.9520
2829.0000;2120.0990
2830.0000;2106.4540
2831.0000;2093.7660
2832.0000;2090.2110
2833.0000;2094.9980
2834.0000;2107.1350
2835.0000;2118.4820
2836.0000;2123.8470
2837.0000;2129.3430
2838.0000;2132.9720
2839.0000;2124.7630
2840.0000;2106.4950
2841.0000;2097.4400
2842.0000;2102.5900
2843.0000;2108.9350
2844.0000;2114.2670
2845.0000;2116.3530
2846.0000;2115.2560
2847.0000;2118.5830
2848.0000;2122.0200
2849.0000;2114.9510
2850.0000;2103.5320
2851.0000;2101.0320
2852.0000;2107.7160
2853.0000;2120.1420
2854.0000;2128.2260
2855.0000;2114.0200
2856.0000;2097.2000
2857.0000;2109.9280
2858.0000;2126.4700
2859.0000;2117.2710
2860.0000;2098.5250
2861.0000;2084.2380
2862.0000;2081.2920
2863.0000;2094.9850
2864.0000;2106.5050
2865.0000;2098.5320
2866.0000;2086.9240
2867.0000;2082.2570
2868.0000;2077.1490
2869.0000;2070.0740
2870.0000;2060.0890
2871.0000;2048.7540
2872.0000;2043.8250
2873.0000;2048.3120
2874.0000;2055.1730
2875.0000;2061.3470
2876.0000;2064.1630
2877.0000;2062.8220
2878.0000;2063.0210
2879.0000;2065.2630
2880.0000;2067.9800
2881.0000;2072.8370
2882.0000;2086.6630
2883.0000;2100.7320
2884.0000;2103.9410
2885.0000;2095.0710
2886.0000;2083.6630
2887.0000;2072.5560
2888.0000;2068.2920
2889.0000;2067.4670
2890.0000;2056.9520
2891.0000;2055.4570
2892.0000;2077.3670
2893.0000;2098.8010
2894.0000;2100.0690
2895.0000;2090.8560
2896.0000;2080.4890
2897.0000;2071.7820
2898.0000;2069.5850
2899.0000;2075.2940
2900.0000;2087.3680
2901.0000;2084.1100
2902.0000;2062.2730
2903.0000;2062.8870
2904.0000;2089.1330
2905.0000;2093.4500
2906.0000;2071.7900
2907.0000;2049.7900
2908.0000;2039.1440
2909.0000;2052.4930
2910.0000;2078.2680
2911.0000;2076.2970
2912.0000;2056.2180
2913.0000;2047.2340
2914.0000;2048.1190
2915.0000;2054.6460
2916.0000;2062.6420
2917.0000;2061.9020
2918.0000;2059.8560
2919.0000;2064.5130
2920.0000;2070.0600
2921.0000;2073.4840
2922.0000;2068.1080
2923.0000;2051.1480
2924.0000;2052.4320
2925.0000;2082.5680
2926.0000;2090.7710
2927.0000;2062.2420
2928.0000;2040.5790
2929.0000;2038.1880
2930.0000;2037.9310
2931.0000;2040.7110
2932.0000;2051.1070
2933.0000;2060.9930
2934.0000;2050.4840
2935.0000;2030.7200
2936.0000;2034.1220
2937.0000;2047.0010
2938.0000;2036.3320
2939.0000;2023.5490
2940.0000;2034.4310
2941.0000;2048.6630
2942.0000;2045.3290
2943.0000;2034.0230
2944.0000;2021.6710
2945.0000;2019.5810
2946.0000;2034.1110
2947.0000;2040.8980
2948.0000;2029.4200
2949.0000;2032.9570
2950.0000;2057.7850
2951.0000;2074.0050
2952.0000;2073.5520
2953.0000;2068.4740
2954.0000;2059.1280
2955.0000;2045.7290
2956.0000;2036.0910
2957.0000;2040.4270
2958.0000;2050.5900
2959.0000;2043.5480
2960.0000;2029.8340
2961.0000;2025.1460
2962.0000;2021.6340
2963.0000;2010.0520
2964.0000;2005.9320
2965.0000;2018.1830
2966.0000;2029.3680
2967.0000;2027.6410
2968.0000;2027.4330
2969.0000;2033.3040
2970.0000;2038.5480
2971.0000;2040.7560
2972.0000;2043.3280
2973.0000;2044.2160
2974.0000;2037.1800
2975.0000;2027.2290
2976.0000;2032.0720
2977.0000;2041.1030
2978.0000;2027.0680
2979.0000;2009.6740
2980.0000;2017.0260
2981.0000;2033.8220
2982.0000;2041.0400
2983.0000;2040.2870
2984.0000;2032.1600
2985.0000;2025.1970
2986.0000;2026.4330
2987.0000;2028.1190
2988.0000;2027.4090
2989.0000;2025.3660
2990.0000;2022.3290
2991.0000;2019.5640
2992.0000;2017.0340
2993.0000;2010.8270
2994.0000;2003.9470
2995.0000;1999.7510
2996.0000;2001.0530
2997.0000;2008.1710
2998.0000;2014.1150
2999.0000;2009.7220
3000.0000;2000.9300
3001.0000;1995.1140
3002.0000;1990.6090
3003.0000;1987.1990
3004.0000;1986.5420
3005.0000;1988.5160
3006.0000;1987.5130
3007.0000;1983.9490
3008.0000;1991.9240
3009.0000;2005.9330
3010.0000;1998.7520
3011.0000;1978.2870
3012.0000;1974.4650
3013.0000;1984.7420
3014.0000;1997.9030
3015.0000;2005.6690
3016.0000;1996.0400
3017.0000;1985.7200
3018.0000;1991.2790
3019.0000;2004.5490
3020.0000;2019.2580
3021.0000;2022.5820
3022.0000;2009.1830
3023.0000;2000.0200
3024.0000;2002.2570
3025.0000;2014.8520
3026.0000;2029.5310
3027.0000;2022.0550
3028.0000;2001.3010
3029.0000;1999.6790
3030.0000;2007.2810
3031.0000;2008.6610
3032.0000;1998.5490
3033.0000;1967.9280
3034.0000;1952.1060
3035.0000;1973.2590
3036.0000;1993.2410
3037.0000;1990.1080
3038.0000;1973.5520
3039.0000;1950.4410
3040.0000;1942.8720
3041.0000;1952.6040
3042.0000;1950.8690
3043.0000;1942.5780
3044.0000;1942.2820
3045.0000;1947.2500
3046.0000;1949.2800
3047.0000;1954.3430
3048.0000;1967.5710
3049.0000;1976.5600
3050.0000;1973.9940
3051.0000;1968.2520
3052.0000;1963.9920
3053.0000;1957.5880
3054.0000;1950.5790
3055.0000;1946.8510
3056.0000;1947.0790
3057.0000;1945.0520
3058.0000;1940.5840
3059.0000;1929.4320
3060.0000;1923.8230
3061.0000;1938.7610
3062.0000;1949.2640
3063.0000;1930.4640
3064.0000;1918.1200
3065.0000;1933.2490
3066.0000;1947.4980
3067.0000;1948.9700
3068.0000;1948.2310
3069.0000;1946.3250
3070.0000;1944.3120
3071.0000;1944.6840
3072.0000;1953.0960
3073.0000;1961.0000
3074.0000;1955.1440
3075.0000;1944.9570
3076.0000;1944.4280
3077.0000;1939.3010
3078.0000;1921.1300
3079.0000;1919.7490
3080.0000;1944.1800
3081.0000;1955.0840
3082.0000;1944.5770
3083.0000;1941.6180
3084.0000;1943.2250
3085.0000;1928.4590
3086.0000;1914.2530
3087.0000;1929.0290
3088.0000;1947.6900
3089.0000;1936.5670
3090.0000;1924.3950
3091.0000;1931.4980
3092.0000;1941.5080
3093.0000;1947.0000
3094.0000;1949.0120
3095.0000;1947.3760
3096.0000;1947.5890
3097.0000;1950.7630
3098.0000;1958.3390
3099.0000;1965.3290
3100.0000;1967.3340
3101.0000;1960.6610
3102.0000;1945.6660
3103.0000;1932.1980
3104.0000;1928.7390
3105.0000;1931.2440
3106.0000;1936.8490
3107.0000;1938.7820
3108.0000;1936.5990
3109.0000;1941.1440
3110.0000;1947.8770
3111.0000;1943.9190
3112.0000;1938.9050
3113.0000;1949.3680
3114.0000;1961.5380
3115.0000;1963.7690
3116.0000;1956.5770
3117.0000;1942.5760
3118.0000;1930.3400
3119.0000;1926.2830
3120.0000;1929.7720
3121.0000;1938.5280
3122.0000;1940.4270
3123.0000;1935.2600
3124.0000;1929.4620
3125.0000;1917.0790
3126.0000;1891.6390
3127.0000;1886.8030
3128.0000;1921.3320
3129.0000;1943.3690
3130.0000;1929.0040
3131.0000;1909.2960
3132.0000;1896.0350
3133.0000;1903.6660
3134.0000;1922.5750
3135.0000;1921.5610
3136.0000;1906.8000
3137.0000;1889.5630
3138.0000;1881.0570
3139.0000;1889.5490
3140.0000;1904.9660
3141.0000;1916.5990
3142.0000;1910.0890
3143.0000;1885.5180
3144.0000;1864.0770
3145.0000;1858.0690
3146.0000;1874.1140
3147.0000;1894.7240
3148.0000;1888.4830
3149.0000;1873.0510
3150.0000;1865.0870
3151.0000;1862.1700
3152.0000;1864.3270
3153.0000;1863.0490
3154.0000;1857.4310
3155.0000;1853.3940
3156.0000;1854.6160
3157.0000;1863.7180
3158.0000;1875.9950
3159.0000;1882.7250
3160.0000;1889.9990
3161.0000;1903.2480
3162.0000;1904.3500
3163.0000;1888.7330
3164.0000;1884.0700
3165.0000;1892.1550
3166.0000;1884.3030
3167.0000;1870.7610
3168.0000;1879.5240
3169.0000;1893.8610
3170.0000;1889.4280
3171.0000;1887.7290
3172.0000;1902.7290
3173.0000;1902.7690
3174.0000;1881.2190
3175.0000;1880.3080
3176.0000;1900.7770
3177.0000;1908.4460
3178.0000;1901.0220
3179.0000;1883.3980
3180.0000;1870.7290
3181.0000;1880.9410
3182.0000;1885.2250
3183.0000;1866.3850
3184.0000;1853.5200
3185.0000;1855.3280
3186.0000;1855.6840
3187.0000;1854.0880
3188.0000;1850.9650
3189.0000;1847.4700
3190.0000;1842.2930
3191.0000;1846.7720
3192.0000;1867.2300
3193.0000;1877.1130
3194.0000;1865.2100
3195.0000;1858.1390
3196.0000;1859.1420
3197.0000;1854.8420
3198.0000;1846.7210
3199.0000;1836.1740
3200.0000;1829.3370
3201.0000;1830.9770
3202.0000;1827.7750
3203.0000;1813.2140
3204.0000;1811.3040
3205.0000;1825.1080
3206.0000;1826.4440
3207.0000;1820.4010
3208.0000;1832.2090
3209.0000;1845.7470
3210.0000;1841.0710
3211.0000;1834.4360
3212.0000;1838.5820
3213.0000;1834.4830
3214.0000;1819.7800
3215.0000;1813.5290
3216.0000;1818.7850
3217.0000;1824.1930
3218.0000;1829.9470
3219.0000;1834.7530
3220.0000;1838.8060
3221.0000;1843.5390
3222.0000;1836.4480
3223.0000;1817.6800
3224.0000;1818.9660
3225.0000;1836.3510
3226.0000;1831.4220
3227.0000;1812.3010
3228.0000;1799.7120
3229.0000;1790.1310
3230.0000;1779.8020
3231.0000;1780.5020
3232.0000;1793.6870
3233.0000;1798.5940
3234.0000;1795.7240
3235.0000;1809.3260
3236.0000;1825.5470
3237.0000;1821.0110
3238.0000;1810.9690
3239.0000;1812.7660
3240.0000;1819.1490
3241.0000;1824.5210
3242.0000;1808.7610
3243.0000;1778.4180
3244.0000;1768.2730
3245.0000;1777.9250
3246.0000;1788.0070
3247.0000;1797.6240
3248.0000;1800.9550
3249.0000;1801.9920
3250.0000;1802.5020
3251.0000;1801.4990
3252.0000;1799.1930
3253.0000;1795.6450
3254.0000;1795.3620
3255.0000;1804.8210
3256.0000;1810.9700
3257.0000;1803.3170
3258.0000;1794.3350
3259.0000;1791.3620
3260.0000;1801.7810
3261.0000;1818.2960
3262.0000;1816.6900
3263.0000;1804.5000
3264.0000;1799.8520
3265.0000;1795.1230
3266.0000;1787.9300
3267.0000;1794.3020
3268.0000;1813.0400
3269.0000;1820.6040
3270.0000;1811.9730
3271.0000;1793.1180
3272.0000;1780.8180
3273.0000;1795.4840
3274.0000;1806.1470
3275.0000;1794.7460
3276.0000;1789.4960
3277.0000;1793.2090
3278.0000;1786.5290
3279.0000;1774.0000
3280.0000;1764.1300
3281.0000;1760.8580
3282.0000;1764.6810
3283.0000;1771.8870
3284.0000;1778.3440
3285.0000;1782.9040
3286.0000;1783.5250
3287.0000;1781.3050
3288.0000;1779.8060
3289.0000;1785.9360
3290.0000;1791.5100
3291.0000;1790.8430
3292.0000;1778.6680
3293.0000;1759.4700
3294.0000;1754.4810
3295.0000;1760.1640
3296.0000;1753.6000
3297.0000;1744.2450
3298.0000;1738.4100
3299.0000;1736.7770
3300.0000;1739.7150
3301.0000;1745.9860
3302.0000;1751.9960
3303.0000;1750.5680
3304.0000;1749.6760
3305.0000;1762.4090
3306.0000;1776.4070
3307.0000;1782.4340
3308.0000;1772.6950
3309.0000;1750.8680
3310.0000;1743.8030
3311.0000;1747.2000
3312.0000;1739.4180
3313.0000;1730.3910
3314.0000;1725.2450
3315.0000;1715.5800
3316.0000;1703.1070
3317.0000;1709.4760
3318.0000;1727.9830
3319.0000;1725.8040
3320.0000;1720.5060
3321.0000;1734.3730
3322.0000;1743.0570
3323.0000;1736.2030
3324.0000;1741.4260
3325.0000;1754.7160
3326.0000;1747.6090
3327.0000;1731.1550
3328.0000;1726.7870
3329.0000;1731.6860
3330.0000;1742.3660
3331.0000;1742.6740
3332.0000;1729.8840
3333.0000;1717.2690
3334.0000;1711.7230
3335.0000;1717.7770
3336.0000;1725.0260
3337.0000;1722.4350
3338.0000;1715.5120
3339.0000;1710.0520
3340.0000;1721.5210
3341.0000;1738.8280
3342.0000;1738.2380
3343.0000;1725.1110
3344.0000;1710.0520
3345.0000;1698.4950
3346.0000;1697.5960
3347.0000;1712.8060
3348.0000;1730.3780
3349.0000;1713.3900
3350.0000;1693.6680
3351.0000;1707.8250
3352.0000;1718.5500
3353.0000;1710.3220
3354.0000;1696.6160
3355.0000;1687.2450
3356.0000;1696.5470
3357.0000;1713.5070
3358.0000;1720.3580
3359.0000;1722.6710
3360.0000;1722.3840
3361.0000;1724.6610
3362.0000;1726.0770
3363.0000;1716.8460
3364.0000;1705.3790
3365.0000;1702.3970
3366.0000;1703.2620
3367.0000;1704.9730
3368.0000;1706.2820
3369.0000;1703.9620
3370.0000;1689.1690
3371.0000;1682.5010
3372.0000;1705.5230
3373.0000;1728.0300
3374.0000;1732.1140
3375.0000;1723.8580
3376.0000;1709.9220
3377.0000;1713.5190
3378.0000;1720.2600
3379.0000;1712.3880
3380.0000;1705.3470
3381.0000;1704.6030
3382.0000;1691.5200
3383.0000;1677.5000
3384.0000;1693.8210
3385.0000;1710.9150
3386.0000;1695.1400
3387.0000;1677.5640
3388.0000;1672.7580
3389.0000;1675.4940
3390.0000;1682.0840
3391.0000;1677.4420
3392.0000;1676.3700
3393.0000;1691.0980
3394.0000;1700.2170
3395.0000;1695.8470
3396.0000;1688.0630
3397.0000;1682.3740
3398.0000;1687.6620
3399.0000;1695.9220
3400.0000;1698.1570
3401.0000;1695.2940
3402.0000;1689.2570
3403.0000;1690.1550
3404.0000;1690.4590
3405.0000;1675.5350
3406.0000;1659.3380
3407.0000;1653.4390
3408.0000;1658.7020
3409.0000;1673.4120
3410.0000;1685.6100
3411.0000;1692.4030
3412.0000;1695.6980
3413.0000;1695.1000
3414.0000;1692.4440
3415.0000;1686.1960
3416.0000;1677.2770
3417.0000;1665.0560
3418.0000;1657.6140
3419.0000;1659.6290
3420.0000;1660.8300
3421.0000;1656.4850
3422.0000;1651.1880
3423.0000;1648.1640
3424.0000;1649.5930
3425.0000;1654.2000
3426.0000;1658.6330
3427.0000;1664.7400
3428.0000;1668.2900
3429.0000;1656.7620
3430.0000;1645.5310
3431.0000;1660.4190
3432.0000;1665.9660
3433.0000;1646.3820
3434.0000;1648.1470
3435.0000;1668.9320
3436.0000;1675.0300
3437.0000;1667.5620
3438.0000;1652.3580
3439.0000;1641.3040
3440.0000;1641.9310
3441.0000;1647.8410
3442.0000;1651.6040
3443.0000;1637.0300
3444.0000;1630.0450
3445.0000;1646.9820
3446.0000;1653.0130
3447.0000;1641.2670
3448.0000;1628.3390
3449.0000;1619.5000
3450.0000;1619.7880
3451.0000;1623.1850
3452.0000;1624.3740
3453.0000;1619.5300
3454.0000;1614.0000
3455.0000;1620.1580
3456.0000;1627.9560
3457.0000;1628.6530
3458.0000;1632.0330
3459.0000;1636.4360
3460.0000;1629.9610
3461.0000;1621.6640
3462.0000;1625.8740
3463.0000;1625.8860
3464.0000;1616.0910
3465.0000;1610.8420
3466.0000;1611.2000
3467.0000;1608.1990
3468.0000;1610.5890
3469.0000;1621.2880
3470.0000;1623.1130
3471.0000;1613.8780
3472.0000;1605.9790
3473.0000;1604.9640
3474.0000;1615.0610
3475.0000;1617.9190
3476.0000;1607.1230
3477.0000;1603.6790
3478.0000;1606.1800
3479.0000;1604.0770
3480.0000;1601.6370
3481.0000;1600.5380
3482.0000;1596.2800
3483.0000;1592.0450
3484.0000;1597.7370
3485.0000;1601.2460
3486.0000;1589.3050
3487.0000;1589.0930
3488.0000;1603.5590
3489.0000;1599.0440
3490.0000;1586.4950
3491.0000;1590.5220
3492.0000;1597.6370
3493.0000;1601.0750
3494.0000;1608.3880
3495.0000;1615.0000
3496.0000;1615.7890
3497.0000;1606.3840
3498.0000;1588.6290
3499.0000;1581.5810
3500.0000;1587.2790
3501.0000;1581.5590
3502.0000;1576.7420
3503.0000;1583.9550
3504.0000;1588.4970
3505.0000;1585.2730
3506.0000;1585.6340
3507.0000;1583.3990
3508.0000;1568.2850
3509.0000;1562.5260
3510.0000;1575.0990
3511.0000;1580.9450
3512.0000;1576.5110
3513.0000;1568.1150
3514.0000;1556.8270
3515.0000;1547.4260
3516.0000;1548.6910
3517.0000;1558.8660
3518.0000;1561.7440
3519.0000;1559.7540
3520.0000;1556.7500
3521.0000;1547.3490
3522.0000;1538.3230
3523.0000;1551.1890
3524.0000;1569.1460
3525.0000;1566.3610
3526.0000;1565.4340
3527.0000;1573.1910
3528.0000;1581.0960
3529.0000;1583.6860
3530.0000;1576.4950
3531.0000;1574.0410
3532.0000;1582.5830
3533.0000;1587.0950
3534.0000;1584.0490
3535.0000;1573.4170
3536.0000;1570.1970
3537.0000;1583.1780
3538.0000;1595.8810
3539.0000;1597.6000
3540.0000;1580.0330
3541.0000;1558.6560
3542.0000;1550.1850
3543.0000;1541.8390
3544.0000;1538.5890
3545.0000;1552.5090
3546.0000;1562.6840
3547.0000;1548.7620
3548.0000;1533.9040
3549.0000;1526.8720
3550.0000;1521.5960
3551.0000;1521.2600
3552.0000;1523.7120
3553.0000;1528.4550
3554.0000;1532.0170
3555.0000;1527.2950
3556.0000;1521.6420
3557.0000;1526.0380
3558.0000;1526.5820
3559.0000;1521.0600
3560.0000;1523.8670
3561.0000;1527.7290
3562.0000;1521.1970
3563.0000;1522.5940
3564.0000;1534.1120
3565.0000;1530.2500
3566.0000;1523.4940
3567.0000;1538.3410
3568.0000;1538.9850
3569.0000;1518.7570
3570.0000;1528.5580
3571.0000;1553.7400
3572.0000;1560.7770
3573.0000;1543.1650
3574.0000;1507.7260
3575.0000;1497.8510
3576.0000;1511.4270
3577.0000;1519.5530
3578.0000;1525.7680
3579.0000;1527.7220
3580.0000;1528.5270
3581.0000;1528.3840
3582.0000;1530.1870
3583.0000;1526.0290
3584.0000;1514.8580
3585.0000;1508.6300
3586.0000;1509.9590
3587.0000;1514.8730
3588.0000;1518.7030
3589.0000;1516.5650
3590.0000;1507.0990
3591.0000;1498.8750
3592.0000;1504.6070
3593.0000;1513.4960
3594.0000;1517.7210
3595.0000;1520.2470
3596.0000;1517.8540
3597.0000;1510.3830
3598.0000;1495.9530
3599.0000;1478.4290
3600.0000;1462.4770
3601.0000;1460.4800
3602.0000;1479.5560
3603.0000;1488.1150
3604.0000;1475.6360
3605.0000;1482.5130
3606.0000;1493.9470
3607.0000;1483.4130
3608.0000;1474.9240
3609.0000;1480.0920
3610.0000;1497.4630
3611.0000;1511.7800
3612.0000;1503.8330
3613.0000;1493.7380
3614.0000;1490.6140
3615.0000;1487.9020
3616.0000;1490.0620
3617.0000;1498.2860
3618.0000;1494.9150
3619.0000;1478.3880
3620.0000;1464.0170
3621.0000;1460.3920
3622.0000;1470.3990
3623.0000;1478.8440
3624.0000;1480.0470
3625.0000;1479.2340
3626.0000;1474.5700
3627.0000;1467.5780
3628.0000;1458.3270
3629.0000;1453.6000
3630.0000;1462.5570
3631.0000;1474.6220
3632.0000;1479.1240
3633.0000;1478.8110
3634.0000;1477.7150
3635.0000;1488.5070
3636.0000;1486.4660
3637.0000;1465.9300
3638.0000;1469.9270
3639.0000;1486.3480
3640.0000;1480.5830
3641.0000;1466.4750
3642.0000;1453.8100
3643.0000;1452.2520
3644.0000;1459.1950
3645.0000;1463.1750
3646.0000;1469.7390
3647.0000;1475.0370
3648.0000;1469.6840
3649.0000;1455.6520
3650.0000;1440.8870
3651.0000;1443.1660
3652.0000;1459.0670
3653.0000;1459.3890
3654.0000;1448.3000
3655.0000;1433.7010
3656.0000;1428.2590
3657.0000;1436.6870
3658.0000;1455.0280
3659.0000;1457.3420
3660.0000;1434.3000
3661.0000;1426.4000
3662.0000;1440.3680
3663.0000;1470.7680
3664.0000;1479.0560
3665.0000;1454.6940
3666.0000;1434.8410
3667.0000;1432.4810
3668.0000;1454.1970
3669.0000;1449.1040
3670.0000;1420.2630
3671.0000;1432.7480
3672.0000;1446.8140
3673.0000;1431.9190
3674.0000;1417.1520
3675.0000;1413.3570
3676.0000;1425.4320
3677.0000;1427.1780
3678.0000;1410.0600
3679.0000;1417.5020
3680.0000;1434.6460
3681.0000;1432.1050
3682.0000;1420.1240
3683.0000;1407.8360
3684.0000;1411.7640
3685.0000;1417.9400
3686.0000;1410.9310
3687.0000;1408.7080
3688.0000;1412.5570
3689.0000;1416.6720
3690.0000;1408.6640
3691.0000;1388.3990
3692.0000;1391.7350
3693.0000;1407.4620
3694.0000;1406.7910
3695.0000;1404.3340
3696.0000;1403.2520
3697.0000;1398.7170
3698.0000;1392.5270
3699.0000;1387.8580
3700.0000;1396.9270
3701.0000;1410.6820
3702.0000;1404.1850
3703.0000;1392.5170
3704.0000;1385.6070
3705.0000;1367.9480
3706.0000;1360.4160
3707.0000;1385.4920
3708.0000;1404.5780
3709.0000;1403.8360
3710.0000;1402.7280
3711.0000;1399.5890
3712.0000;1397.6170
3713.0000;1395.7340
3714.0000;1396.1260
3715.0000;1401.5700
3716.0000;1400.1600
3717.0000;1388.2150
3718.0000;1376.1260
3719.0000;1370.8740
3720.0000;1375.8690
3721.0000;1381.6550
3722.0000;1386.3380
3723.0000;1395.4590
3724.0000;1400.8330
3725.0000;1399.0850
3726.0000;1400.4740
3727.0000;1398.1700
3728.0000;1384.0200
3729.0000;1382.5250
3730.0000;1393.4090
3731.0000;1384.2880
3732.0000;1371.8950
3733.0000;1370.7360
3734.0000;1373.1860
3735.0000;1372.4190
3736.0000;1357.3560
3737.0000;1354.9260
3738.0000;1371.5300
3739.0000;1384.2620
3740.0000;1383.4660
3741.0000;1366.2050
3742.0000;1358.2590
3743.0000;1361.6020
3744.0000;1361.9300
3745.0000;1363.4680
3746.0000;1366.8320
3747.0000;1376.6330
3748.0000;1375.8540
3749.0000;1353.8910
3750.0000;1344.4810
3751.0000;1354.3340
3752.0000;1371.9820
3753.0000;1369.6900
3754.0000;1341.8150
3755.0000;1327.8840
3756.0000;1332.5350
3757.0000;1349.3720
3758.0000;1351.0740
3759.0000;1343.0470
3760.0000;1355.2710
3761.0000;1363.6270
3762.0000;1358.8570
3763.0000;1355.7710
3764.0000;1359.8030
3765.0000;1372.9850
3766.0000;1376.6140
3767.0000;1370.7740
3768.0000;1370.2200
3769.0000;1368.9450
3770.0000;1367.1440
3771.0000;1372.2820
3772.0000;1372.4360
3773.0000;1358.8750
3774.0000;1352.3290
3775.0000;1355.5710
3776.0000;1361.1930
3777.0000;1364.6880
3778.0000;1361.9670
3779.0000;1353.6870
3780.0000;1345.6930
3781.0000;1343.5460
3782.0000;1342.6310
3783.0000;1345.9860
3784.0000;1356.3670
3785.0000;1345.6710
3786.0000;1320.0300
3787.0000;1324.9660
3788.0000;1330.3480
3789.0000;1318.6120
3790.0000;1323.1050
3791.0000;1332.3090
3792.0000;1327.2890
3793.0000;1326.7960
3794.0000;1330.6160
3795.0000;1327.1970
3796.0000;1323.2320
3797.0000;1322.6930
3798.0000;1324.5190
3799.0000;1325.4710
3800.0000;1322.4230
3801.0000;1322.2680
3802.0000;1324.0060
3803.0000;1322.1480
3804.0000;1335.4930
3805.0000;1356.3110
3806.0000;1349.1290
3807.0000;1333.4930
3808.0000;1328.5610
3809.0000;1327.3450
3810.0000;1325.2890
3811.0000;1315.4930
3812.0000;1318.6760
3813.0000;1328.7760
3814.0000;1321.2190
3815.0000;1306.1240
3816.0000;1293.3720
3817.0000;1291.1220
3818.0000;1294.4870
3819.0000;1294.2760
3820.0000;1285.2770
3821.0000;1279.6110
3822.0000;1293.5550
3823.0000;1300.5450
3824.0000;1295.0730
3825.0000;1291.1910
3826.0000;1291.4500
3827.0000;1295.8110
3828.0000;1294.4630
3829.0000;1284.5160
3830.0000;1269.0410
3831.0000;1273.1720
3832.0000;1286.7920
3833.0000;1284.7560
3834.0000;1279.4300
3835.0000;1272.1440
3836.0000;1255.5660
3837.0000;1254.1570
3838.0000;1270.7440
3839.0000;1264.2500
3840.0000;1254.7450
3841.0000;1261.8400
3842.0000;1273.7290
3843.0000;1280.0640
3844.0000;1271.6380
3845.0000;1272.3980
3846.0000;1280.4040
3847.0000;1272.5140
3848.0000;1269.4570
3849.0000;1277.3770
3850.0000;1279.8060
3851.0000;1281.4510
3852.0000;1284.4430
3853.0000;1281.4060
3854.0000;1272.0990
3855.0000;1261.2300
3856.0000;1276.9660
3857.0000;1293.6910
3858.0000;1255.5570
3859.0000;1246.5150
3860.0000;1274.0000
3861.0000;1250.7770
3862.0000;1243.5030
3863.0000;1275.7360
3864.0000;1271.3280
3865.0000;1261.6740
3866.0000;1275.8310
3867.0000;1275.3330
3868.0000;1266.8600
3869.0000;1268.6560
3870.0000;1261.6630
3871.0000;1254.6330
3872.0000;1271.4680
3873.0000;1273.7810
3874.0000;1255.0450
3875.0000;1248.0050
3876.0000;1245.0390
3877.0000;1243.4630
3878.0000;1250.9590
3879.0000;1258.0390
3880.0000;1254.5660
3881.0000;1241.7320
3882.0000;1230.8410
3883.0000;1235.2290
3884.0000;1233.3120
3885.0000;1229.0890
3886.0000;1238.5680
3887.0000;1246.3760
3888.0000;1244.5160
3889.0000;1234.0140
3890.0000;1228.5480
3891.0000;1233.6910
3892.0000;1235.0750
3893.0000;1225.0590
3894.0000;1204.6310
3895.0000;1199.5800
3896.0000;1212.3130
3897.0000;1232.0870
3898.0000;1230.5650
3899.0000;1216.5360
3900.0000;1217.1560
3901.0000;1213.0810
3902.0000;1208.8990
3903.0000;1219.5740
3904.0000;1223.9280
3905.0000;1217.9640
3906.0000;1218.6260
3907.0000;1220.4350
3908.0000;1220.3090
3909.0000;1215.6340
3910.0000;1216.0900
3911.0000;1225.1320
3912.0000;1225.3770
3913.0000;1224.3400
3914.0000;1229.8500
3915.0000;1226.3100
3916.0000;1214.9740
3917.0000;1203.8880
3918.0000;1203.2860
3919.0000;1213.1960
3920.0000;1222.8670
3921.0000;1211.3880
3922.0000;1187.7420
3923.0000;1186.0310
3924.0000;1185.0420
3925.0000;1184.5720
3926.0000;1206.5770
3927.0000;1218.6510
3928.0000;1207.8590
3929.0000;1205.3540
3930.0000;1205.5240
3931.0000;1206.1710
3932.0000;1211.2640
3933.0000;1207.1470
3934.0000;1188.9490
3935.0000;1188.3830
3936.0000;1196.6580
3937.0000;1196.7690
3938.0000;1197.8600
3939.0000;1196.9060
3940.0000;1191.2290
3941.0000;1191.8500
3942.0000;1194.5800
3943.0000;1188.7520
3944.0000;1180.7030
3945.0000;1177.4190
3946.0000;1185.7110
3947.0000;1183.1970
3948.0000;1172.4490
3949.0000;1180.0520
3950.0000;1181.4050
3951.0000;1172.2050
3952.0000;1170.2620
3953.0000;1172.5330
3954.0000;1175.0060
3955.0000;1170.5290
3956.0000;1165.5140
3957.0000;1164.4340
3958.0000;1163.2050
3959.0000;1162.0850
3960.0000;1161.4710
3961.0000;1165.2380
3962.0000;1167.5770
3963.0000;1163.8430
3964.0000;1153.9900
3965.0000;1162.2550
3966.0000;1196.6940
3967.0000;1186.0790
3968.0000;1151.5420
3969.0000;1136.5570
3970.0000;1124.4270
3971.0000;1127.4350
3972.0000;1148.6900
3973.0000;1153.2700
3974.0000;1138.3530
3975.0000;1119.3130
3976.0000;1109.5070
3977.0000;1111.4270
3978.0000;1115.0150
3979.0000;1121.8370
3980.0000;1125.6230
3981.0000;1119.6900
3982.0000;1114.8160
3983.0000;1118.1060
3984.0000;1131.8050
3985.0000;1137.0240
3986.0000;1130.4020
3987.0000;1123.5950
3988.0000;1124.0700
3989.0000;1130.8610
3990.0000;1131.8920
3991.0000;1130.6220
3992.0000;1129.7270
3993.0000;1133.1300
3994.0000;1133.7790
3995.0000;1130.5760
3996.0000;1130.4540
3997.0000;1114.4030
3998.0000;1093.6690
3999.0000;1109.7360
4000.0000;1116.9270
4001.0000;1104.4280
4002.0000;1108.7050
4003.0000;1109.9990
4004.0000;1106.9620
4005.0000;1119.9090
4006.0000;1127.0890
4007.0000;1117.9530
4008.0000;1098.0610
4009.0000;1088.0320
4010.0000;1096.0240
4011.0000;1105.0070
4012.0000;1111.5500
4013.0000;1110.2650
4014.0000;1101.7400
4015.0000;1100.8180
4016.0000;1108.5650
4017.0000;1100.2310
4018.0000;1106.1850
4019.0000;1124.7320
4020.0000;1110.8530
4021.0000;1101.9460
4022.0000;1109.3430
4023.0000;1109.5250
4024.0000;1090.1510
4025.0000;1064.3640
4026.0000;1073.5850
4027.0000;1091.5430
4028.0000;1101.1120
4029.0000;1105.3410
4030.0000;1091.2860
4031.0000;1068.7350
4032.0000;1065.7220
4033.0000;1069.2220
4034.0000;1068.7120
4035.0000;1054.8660
4036.0000;1046.9640
4037.0000;1051.6440
4038.0000;1060.5010
4039.0000;1062.8090
4040.0000;1055.6230
4041.0000;1046.3230
4042.0000;1056.9250
4043.0000;1072.0210
4044.0000;1049.3710
4045.0000;1052.8390
4046.0000;1071.5440
4047.0000;1052.6620
4048.0000;1041.7630
4049.0000;1042.1440
4050.0000;1038.2240
4051.0000;1050.2760
4052.0000;1064.3190
4053.0000;1057.3710
4054.0000;1061.8770
4055.0000;1068.7090
4056.0000;1059.7460
4057.0000;1050.1130
4058.0000;1042.8690
4059.0000;1040.5670
4060.0000;1059.2550
4061.0000;1071.9560
4062.0000;1055.8750
4063.0000;1059.8890
4064.0000;1069.2580
4065.0000;1065.0950
4066.0000;1045.3820
4067.0000;1043.6410
4068.0000;1073.2030
4069.0000;1077.8950
4070.0000;1067.7240
4071.0000;1057.5660
4072.0000;1059.3600
4073.0000;1055.9080
4074.0000;1044.9380
4075.0000;1050.3620
4076.0000;1051.2900
4077.0000;1042.6030
4078.0000;1040.7020
4079.0000;1032.0890
4080.0000;1023.0870
4081.0000;1033.3310
4082.0000;1037.5580
4083.0000;1029.4040
4084.0000;1017.4970
4085.0000;1011.2860
4086.0000;1012.3030
4087.0000;1014.0910
4088.0000;1012.5260
4089.0000;1007.3510
4090.0000;1001.4720
4091.0000;997.6696
4092.0000;1006.5830
4093.0000;1025.0510
4094.0000;1004.9440
4095.0000;984.2412
4096.0000;993.9269
4097.0000;999.5206
4098.0000;1001.5220
4099.0000;998.1133
4100.0000;989.6564
4101.0000;982.2008
4102.0000;979.4185
4103.0000;976.6675
4104.0000;982.2627
4105.0000;993.4236
4106.0000;1000.3990
4107.0000;1002.4430
4108.0000;998.3004
4109.0000;990.6249
4110.0000;990.4426
4111.0000;987.8983
4112.0000;971.5331
4113.0000;955.3619
4114.0000;949.9335
4115.0000;955.5573
4116.0000;945.6077
4117.0000;929.4645
4118.0000;917.8000
4119.0000;912.4974
4120.0000;909.3151
4121.0000;902.9565
4122.0000;891.3594
4123.0000;871.4800
4124.0000;859.5961
4125.0000;875.8829
4126.0000;873.5126
4127.0000;851.8594
4128.0000;833.4058
4129.0000;818.1215
4130.0000;808.1063
4131.0000;799.5985
4132.0000;786.1055
4133.0000;768.6450
4134.0000;752.3513
4135.0000;748.5484
4136.0000;740.6545
4137.0000;723.6733
4138.0000;711.1094
4139.0000;697.2593
4140.0000;684.6467
4141.0000;676.3950
4142.0000;656.7907
4143.0000;635.9600
4144.0000;626.9614
4145.0000;609.6415
4146.0000;592.3571
4147.0000;580.2740
4148.0000;555.7201
4149.0000;542.9776
4150.0000;547.2547
4151.0000;539.6317
4152.0000;527.6921
4153.0000;516.9678
4154.0000;510.4674
4155.0000;506.8335
4156.0000;501.1171
4157.0000;488.6303
4158.0000;480.8449
4159.0000;477.6920
4160.0000;474.5031
4161.0000;465.2109
4162.0000;458.0613
4163.0000;455.5963
4164.0000;447.8162
4165.0000;445.9871
4166.0000;442.9136
4167.0000;420.7819
4168.0000;423.3535
4169.0000;440.0544
4170.0000;440.6228
4171.0000;427.2531
4172.0000;421.3609
4173.0000;432.3414
4174.0000;420.8990
4175.0000;421.5648
4176.0000;436.1618
4177.0000;427.7317
4178.0000;413.3537
4179.0000;406.6375
4180.0000;414.5090
4181.0000;414.5711
4182.0000;415.5612
4183.0000;425.2296
4184.0000;427.0020
4185.0000;419.2822
4186.0000;412.0008
4187.0000;426.3406
4188.0000;429.1418
4189.0000;419.3823
4190.0000;418.0393
4191.0000;409.0682
4192.0000;406.7420
4193.0000;420.6306
4194.0000;418.1891
4195.0000;415.3146
4196.0000;420.9063
4197.0000;424.0566
4198.0000;420.7007
4199.0000;410.8668
4200.0000;400.2270
4201.0000;404.7263
4202.0000;408.7057
4203.0000;398.5523
4204.0000;410.4543
4205.0000;425.5671
4206.0000;425.1287
4207.0000;404.4977
4208.0000;398.9996
4209.0000;412.7569
4210.0000;424.1615
4211.0000;416.8673
4212.0000;413.5623
4213.0000;430.0221
4214.0000;423.2567
4215.0000;420.3866
4216.0000;422.6744
4217.0000;397.9500
4218.0000;400.7914
4219.0000;411.1351
4220.0000;387.8613
4221.0000;390.4277
4222.0000;398.8735
4223.0000;394.9963
4224.0000;396.0112
4225.0000;385.7351
4226.0000;376.4443
4227.0000;393.7624
4228.0000;394.3666
4229.0000;389.8154
4230.0000;399.5732
4231.0000;409.7773
4232.0000;415.2314
4233.0000;417.1959
4234.0000;427.1787
4235.0000;412.9077
4236.0000;352.5430
4237.0000;252.0806
4238.0000;139.1386
