Raman Shift ; Dark Subtracted #1
-2.0000;9819.8910
-1.0000;9280.4260
0.0000;8443.5380
1.0000;7304.5000
2.0000;5903.9100
3.0000;4385.6910
4.0000;3037.6180
5.0000;1901.9720
6.0000;1135.5570
7.0000;840.2731
8.0000;634.5793
9.0000;527.6219
10.0000;593.7368
11.0000;569.1583
12.0000;353.4114
13.0000;133.2825
14.0000;-21.2162
15.0000;-58.9157
16.0000;-12.2850
17.0000;29.0304
18.0000;22.8297
19.0000;14.3806
20.0000;8.9663
21.0000;9.9339
22.0000;15.0873
23.0000;21.2594
24.0000;27.0629
25.0000;31.5488
26.0000;33.4585
27.0000;30.7806
28.0000;25.4864
29.0000;21.9877
30.0000;24.7178
31.0000;29.8480
32.0000;33.2606
33.0000;31.6590
34.0000;26.7431
35.0000;20.8185
36.0000;15.0334
37.0000;10.4233
38.0000;7.6429
39.0000;8.1419
40.0000;11.1078
41.0000;12.6397
42.0000;7.4584
43.0000;-0.5564
44.0000;-6.6938
45.0000;-6.4943
46.0000;-1.3530
47.0000;4.2941
48.0000;6.1698
49.0000;5.3733
50.0000;3.3347
51.0000;0.9176
52.0000;-1.6345
53.0000;-2.8437
54.0000;-1.1596
55.0000;3.0552
56.0000;7.6039
57.0000;10.1378
58.0000;10.8746
59.0000;11.4866
60.0000;15.1947
61.0000;19.9355
62.0000;22.3313
63.0000;17.4678
64.0000;7.5147
65.0000;0.4242
66.0000;4.7432
67.0000;19.2554
68.0000;35.1935
69.0000;44.2703
70.0000;45.5938
71.0000;43.6149
72.0000;43.8364
73.0000;44.8745
74.0000;46.1598
75.0000;48.0891
76.0000;50.4841
77.0000;54.0648
78.0000;60.5190
79.0000;68.8004
80.0000;75.9970
81.0000;79.4720
82.0000;78.1851
83.0000;76.6769
84.0000;81.3680
85.0000;91.5862
86.0000;102.5167
87.0000;110.3850
88.0000;113.5425
89.0000;115.1212
90.0000;119.8336
91.0000;126.8384
92.0000;134.0576
93.0000;140.8061
94.0000;145.9061
95.0000;151.4904
96.0000;161.2592
97.0000;174.3165
98.0000;187.0313
99.0000;198.0861
100.0000;205.2641
101.0000;209.8185
102.0000;217.0085
103.0000;225.8029
104.0000;233.7633
105.0000;240.3238
106.0000;244.2337
107.0000;247.9399
108.0000;256.6674
109.0000;269.5990
110.0000;283.1414
111.0000;295.9429
112.0000;305.9289
113.0000;313.1825
114.0000;321.9968
115.0000;331.1286
116.0000;339.1681
117.0000;347.8772
118.0000;356.1892
119.0000;363.0836
120.0000;369.4292
121.0000;374.1682
122.0000;379.5211
123.0000;390.1553
124.0000;405.9229
125.0000;422.6667
126.0000;437.3224
127.0000;447.5129
128.0000;454.9656
129.0000;464.9809
130.0000;476.6620
131.0000;487.1554
132.0000;497.0023
133.0000;504.6725
134.0000;510.3745
135.0000;517.5665
136.0000;525.5229
137.0000;532.4898
138.0000;539.9146
139.0000;547.0240
140.0000;550.6382
141.0000;551.0951
142.0000;547.0308
143.0000;540.1966
144.0000;533.6675
145.0000;528.7875
146.0000;524.5283
147.0000;519.3302
148.0000;514.2626
149.0000;510.4443
150.0000;507.2805
151.0000;505.5432
152.0000;506.3684
153.0000;509.6474
154.0000;515.8347
155.0000;521.7410
156.0000;523.9176
157.0000;521.1445
158.0000;517.5932
159.0000;518.9669
160.0000;525.7069
161.0000;532.1371
162.0000;533.8179
163.0000;529.5621
164.0000;522.8831
165.0000;518.0536
166.0000;515.4939
167.0000;514.4120
168.0000;513.5664
169.0000;513.5588
170.0000;514.0704
171.0000;513.1046
172.0000;511.1682
173.0000;511.2905
174.0000;517.1496
175.0000;528.1707
176.0000;537.8309
177.0000;540.3817
178.0000;535.0176
179.0000;528.4964
180.0000;529.7239
181.0000;537.6228
182.0000;545.2405
183.0000;546.5463
184.0000;541.4373
185.0000;535.7125
186.0000;534.3529
187.0000;537.2324
188.0000;542.3361
189.0000;548.5667
190.0000;554.7111
191.0000;558.6782
192.0000;557.6293
193.0000;551.9820
194.0000;546.2864
195.0000;546.4502
196.0000;550.9988
197.0000;555.5241
198.0000;554.7789
199.0000;550.8205
200.0000;548.2084
201.0000;552.3693
202.0000;560.6422
203.0000;567.1995
204.0000;566.7195
205.0000;560.6483
206.0000;553.8663
207.0000;551.5066
208.0000;551.6606
209.0000;552.0220
210.0000;549.2023
211.0000;546.0186
212.0000;544.2116
213.0000;545.2387
214.0000;548.6988
215.0000;553.0000
216.0000;555.7982
217.0000;558.3790
218.0000;562.0109
219.0000;570.3255
220.0000;578.2842
221.0000;582.0542
222.0000;577.7222
223.0000;568.8519
224.0000;563.1617
225.0000;567.7594
226.0000;575.9987
227.0000;581.1605
228.0000;576.0867
229.0000;568.1729
230.0000;565.7482
231.0000;575.0845
232.0000;588.3795
233.0000;596.4006
234.0000;593.0772
235.0000;584.1737
236.0000;577.2994
237.0000;575.8466
238.0000;577.0900
239.0000;578.4221
240.0000;578.7539
241.0000;579.9565
242.0000;582.9636
243.0000;588.5228
244.0000;593.5780
245.0000;595.1736
246.0000;591.6439
247.0000;586.8718
248.0000;585.8298
249.0000;589.8067
250.0000;595.1939
251.0000;599.5659
252.0000;601.7758
253.0000;601.7274
254.0000;599.2994
255.0000;594.2639
256.0000;589.4756
257.0000;587.9689
258.0000;590.4570
259.0000;594.9122
260.0000;598.7996
261.0000;602.0572
262.0000;605.5112
263.0000;610.0999
264.0000;614.6936
265.0000;618.6079
266.0000;622.4634
267.0000;624.8488
268.0000;625.9087
269.0000;626.6155
270.0000;626.1370
271.0000;625.4407
272.0000;626.2043
273.0000;627.3503
274.0000;627.8146
275.0000;625.8389
276.0000;623.0754
277.0000;622.0000
278.0000;625.7763
279.0000;631.6444
280.0000;635.6506
281.0000;633.3239
282.0000;628.5350
283.0000;626.6501
284.0000;632.4655
285.0000;641.4515
286.0000;648.8116
287.0000;651.4484
288.0000;650.5021
289.0000;648.6722
290.0000;647.4099
291.0000;645.3270
292.0000;642.2599
293.0000;637.8514
294.0000;634.8807
295.0000;636.1011
296.0000;643.2091
297.0000;651.2182
298.0000;653.8423
299.0000;648.6514
300.0000;642.1144
301.0000;641.9730
302.0000;649.5547
303.0000;658.0519
304.0000;661.4590
305.0000;658.6365
306.0000;653.0044
307.0000;647.6678
308.0000;643.0197
309.0000;640.6681
310.0000;641.5703
311.0000;646.2335
312.0000;652.1056
313.0000;655.6265
314.0000;657.7507
315.0000;661.0229
316.0000;669.5554
317.0000;679.6935
318.0000;687.6724
319.0000;690.4301
320.0000;688.4374
321.0000;687.1048
322.0000;692.7635
323.0000;699.8873
324.0000;704.6974
325.0000;703.6767
326.0000;699.1396
327.0000;695.0032
328.0000;692.7640
329.0000;693.7016
330.0000;699.7877
331.0000;713.5549
332.0000;727.8575
333.0000;733.6088
334.0000;726.4725
335.0000;713.4710
336.0000;704.0217
337.0000;701.9165
338.0000;703.4749
339.0000;704.8505
340.0000;706.1797
341.0000;709.6151
342.0000;716.8376
343.0000;727.3917
344.0000;736.1597
345.0000;739.8824
346.0000;737.1911
347.0000;732.6205
348.0000;731.6846
349.0000;733.0206
350.0000;734.6248
351.0000;735.6430
352.0000;735.7531
353.0000;734.3423
354.0000;730.8253
355.0000;725.6602
356.0000;720.6158
357.0000;714.8671
358.0000;711.6039
359.0000;712.1425
360.0000;719.1605
361.0000;728.3138
362.0000;733.2000
363.0000;728.7230
364.0000;720.3698
365.0000;714.8450
366.0000;716.0413
367.0000;719.8173
368.0000;721.5865
369.0000;720.1135
370.0000;718.2971
371.0000;718.5875
372.0000;721.4944
373.0000;725.2925
374.0000;728.5866
375.0000;730.8066
376.0000;733.1609
377.0000;738.7148
378.0000;745.2925
379.0000;747.4591
380.0000;738.4955
381.0000;722.7097
382.0000;711.4974
383.0000;716.7175
384.0000;733.6257
385.0000;750.8000
386.0000;757.5847
387.0000;756.7071
388.0000;752.7252
389.0000;748.6886
390.0000;743.7560
391.0000;741.6508
392.0000;745.1961
393.0000;750.6046
394.0000;753.1006
395.0000;749.7197
396.0000;744.9332
397.0000;743.7498
398.0000;747.8745
399.0000;753.9220
400.0000;758.3916
401.0000;760.5862
402.0000;761.6301
403.0000;763.4022
404.0000;765.1710
405.0000;766.4940
406.0000;767.3380
407.0000;767.7039
408.0000;769.1965
409.0000;775.1926
410.0000;782.3659
411.0000;786.5706
412.0000;784.1569
413.0000;776.1840
414.0000;767.4852
415.0000;760.5667
416.0000;756.7133
417.0000;757.5284
418.0000;764.4736
419.0000;774.8063
420.0000;782.1982
421.0000;783.1915
422.0000;780.9952
423.0000;779.7059
424.0000;780.0517
425.0000;782.0487
426.0000;787.2217
427.0000;795.3536
428.0000;803.1706
429.0000;809.8370
430.0000;813.0339
431.0000;812.1600
432.0000;806.7156
433.0000;797.3876
434.0000;790.1252
435.0000;791.0616
436.0000;797.8779
437.0000;804.0713
438.0000;803.6620
439.0000;799.9535
440.0000;796.1160
441.0000;795.1442
442.0000;794.6562
443.0000;792.3655
444.0000;786.2813
445.0000;781.0802
446.0000;780.5364
447.0000;786.5613
448.0000;795.3943
449.0000;803.5751
450.0000;809.3011
451.0000;812.3654
452.0000;812.7700
453.0000;809.8954
454.0000;807.7451
455.0000;812.3388
456.0000;821.0386
457.0000;827.3630
458.0000;825.6297
459.0000;817.8369
460.0000;810.0330
461.0000;806.2477
462.0000;805.5129
463.0000;806.2277
464.0000;807.5952
465.0000;809.7585
466.0000;810.6021
467.0000;808.7070
468.0000;807.1963
469.0000;809.3202
470.0000;816.1759
471.0000;824.0353
472.0000;829.0285
473.0000;830.0621
474.0000;830.7364
475.0000;837.0905
476.0000;846.2189
477.0000;851.9615
478.0000;849.2699
479.0000;839.4766
480.0000;829.6000
481.0000;823.9609
482.0000;823.4799
483.0000;828.2033
484.0000;839.4948
485.0000;853.0891
486.0000;861.8907
487.0000;861.3531
488.0000;855.6759
489.0000;851.9138
490.0000;851.7922
491.0000;853.0504
492.0000;855.2124
493.0000;858.0407
494.0000;859.5197
495.0000;855.9360
496.0000;848.9598
497.0000;845.4385
498.0000;852.5195
499.0000;867.0414
500.0000;880.8000
501.0000;887.4214
502.0000;888.0687
503.0000;887.6226
504.0000;890.1461
505.0000;891.4891
506.0000;891.1512
507.0000;888.6004
508.0000;884.7927
509.0000;881.7845
510.0000;880.2429
511.0000;879.7941
512.0000;878.4606
513.0000;877.2209
514.0000;879.5164
515.0000;889.1387
516.0000;904.0671
517.0000;917.7592
518.0000;925.2988
519.0000;925.2484
520.0000;920.9839
521.0000;914.5864
522.0000;906.8966
523.0000;903.5751
524.0000;909.9279
525.0000;918.5472
526.0000;920.2868
527.0000;910.9990
528.0000;899.1624
529.0000;893.3421
530.0000;896.0877
531.0000;901.8279
532.0000;904.0159
533.0000;903.7915
534.0000;904.7936
535.0000;911.0529
536.0000;919.6313
537.0000;926.2000
538.0000;927.3622
539.0000;924.2224
540.0000;921.6031
541.0000;922.9247
542.0000;925.1896
543.0000;926.2413
544.0000;925.1596
545.0000;923.4447
546.0000;922.4048
547.0000;922.4940
548.0000;923.8302
549.0000;925.9781
550.0000;929.2120
551.0000;934.4545
552.0000;945.0617
553.0000;956.9606
554.0000;962.8000
555.0000;956.8822
556.0000;942.8913
557.0000;932.3521
558.0000;931.8519
559.0000;937.7504
560.0000;944.4084
561.0000;949.9171
562.0000;955.7089
563.0000;962.7241
564.0000;969.9487
565.0000;973.3929
566.0000;969.0644
567.0000;957.4517
568.0000;948.6860
569.0000;952.0209
570.0000;964.9629
571.0000;978.1087
572.0000;985.9704
573.0000;988.4897
574.0000;987.6879
575.0000;983.8279
576.0000;977.9219
577.0000;973.6941
578.0000;972.9521
579.0000;975.6899
580.0000;982.2881
581.0000;992.3162
582.0000;1000.5580
583.0000;1000.0940
584.0000;991.9755
585.0000;985.7617
586.0000;992.4861
587.0000;1004.8730
588.0000;1012.9420
589.0000;1007.0700
590.0000;995.2641
591.0000;989.2924
592.0000;995.4567
593.0000;1004.9320
594.0000;1008.6120
595.0000;1003.8430
596.0000;997.9590
597.0000;998.5325
598.0000;1005.3240
599.0000;1013.2280
600.0000;1019.0600
601.0000;1022.0210
602.0000;1023.0460
603.0000;1022.9820
604.0000;1021.2530
605.0000;1020.1720
606.0000;1020.9750
607.0000;1023.1770
608.0000;1026.4670
609.0000;1030.8300
610.0000;1035.3690
611.0000;1039.6760
612.0000;1043.0210
613.0000;1045.1990
614.0000;1048.5970
615.0000;1050.6730
616.0000;1049.3040
617.0000;1041.3050
618.0000;1030.7330
619.0000;1024.6790
620.0000;1027.4590
621.0000;1035.9240
622.0000;1044.7990
623.0000;1051.4710
624.0000;1056.3390
625.0000;1060.2630
626.0000;1061.8570
627.0000;1062.2290
628.0000;1064.5360
629.0000;1067.2270
630.0000;1068.9450
631.0000;1069.2410
632.0000;1068.0320
633.0000;1066.9610
634.0000;1067.1920
635.0000;1067.8380
636.0000;1068.0960
637.0000;1067.5500
638.0000;1067.5220
639.0000;1069.9860
640.0000;1074.7350
641.0000;1077.9800
642.0000;1075.4030
643.0000;1068.4770
644.0000;1064.0240
645.0000;1069.2550
646.0000;1079.4460
647.0000;1086.4530
648.0000;1084.0330
649.0000;1077.6970
650.0000;1074.8800
651.0000;1078.3340
652.0000;1083.0840
653.0000;1084.3480
654.0000;1081.6740
655.0000;1078.5010
656.0000;1077.1590
657.0000;1077.9630
658.0000;1080.8000
659.0000;1085.9620
660.0000;1092.2250
661.0000;1097.5540
662.0000;1101.5770
663.0000;1102.3220
664.0000;1099.7410
665.0000;1093.2580
666.0000;1086.1010
667.0000;1082.0190
668.0000;1082.1440
669.0000;1084.9890
670.0000;1088.4900
671.0000;1093.1240
672.0000;1097.6650
673.0000;1101.3860
674.0000;1103.5840
675.0000;1105.5660
676.0000;1108.2180
677.0000;1108.3650
678.0000;1103.4830
679.0000;1093.2180
680.0000;1084.8350
681.0000;1085.5210
682.0000;1095.1490
683.0000;1104.5220
684.0000;1103.6790
685.0000;1097.3010
686.0000;1093.2630
687.0000;1097.6030
688.0000;1105.1790
689.0000;1111.5560
690.0000;1114.9370
691.0000;1113.6130
692.0000;1104.8860
693.0000;1089.4540
694.0000;1077.7460
695.0000;1080.4660
696.0000;1095.3490
697.0000;1109.8520
698.0000;1113.5500
699.0000;1110.3020
700.0000;1105.5310
701.0000;1101.4820
702.0000;1098.3940
703.0000;1098.9360
704.0000;1104.0310
705.0000;1110.0860
706.0000;1113.1690
707.0000;1113.1680
708.0000;1112.4170
709.0000;1113.6310
710.0000;1115.0870
711.0000;1116.0910
712.0000;1115.9350
713.0000;1115.5570
714.0000;1116.2680
715.0000;1118.3580
716.0000;1121.8150
717.0000;1128.0930
718.0000;1135.6530
719.0000;1139.7450
720.0000;1135.4790
721.0000;1125.2940
722.0000;1117.6590
723.0000;1119.7660
724.0000;1127.2300
725.0000;1134.2800
726.0000;1138.4070
727.0000;1140.6040
728.0000;1142.0000
729.0000;1141.7680
730.0000;1139.7380
731.0000;1136.0570
732.0000;1131.5910
733.0000;1128.9100
734.0000;1129.7330
735.0000;1133.8630
736.0000;1139.5190
737.0000;1146.2690
738.0000;1151.6840
739.0000;1153.8210
740.0000;1151.4950
741.0000;1148.3210
742.0000;1150.1060
743.0000;1154.7020
744.0000;1157.8000
745.0000;1154.7640
746.0000;1149.3630
747.0000;1146.8100
748.0000;1150.4190
749.0000;1156.5510
750.0000;1161.6580
751.0000;1164.5420
752.0000;1165.5900
753.0000;1165.7870
754.0000;1164.2810
755.0000;1161.8000
756.0000;1158.8830
757.0000;1156.4520
758.0000;1156.1040
759.0000;1159.4780
760.0000;1163.2420
761.0000;1162.4840
762.0000;1156.1470
763.0000;1150.0810
764.0000;1150.1560
765.0000;1155.8310
766.0000;1162.2000
767.0000;1165.5410
768.0000;1165.8410
769.0000;1162.9080
770.0000;1156.0010
771.0000;1148.6500
772.0000;1145.2150
773.0000;1147.3830
774.0000;1155.8630
775.0000;1172.1140
776.0000;1192.8960
777.0000;1206.4000
778.0000;1204.5170
779.0000;1191.2140
780.0000;1180.4320
781.0000;1179.7740
782.0000;1183.7540
783.0000;1188.3150
784.0000;1192.5810
785.0000;1195.4170
786.0000;1193.4810
787.0000;1188.2210
788.0000;1186.0860
789.0000;1194.0800
790.0000;1205.3730
791.0000;1212.0920
792.0000;1209.0410
793.0000;1201.8080
794.0000;1198.2510
795.0000;1199.0750
796.0000;1200.7890
797.0000;1198.9110
798.0000;1196.4130
799.0000;1198.1540
800.0000;1209.6670
801.0000;1223.1580
802.0000;1230.3060
803.0000;1225.8170
804.0000;1217.0410
805.0000;1214.2920
806.0000;1217.7000
807.0000;1222.7300
808.0000;1225.0120
809.0000;1226.1720
810.0000;1228.2640
811.0000;1232.9680
812.0000;1237.6230
813.0000;1240.6140
814.0000;1241.0580
815.0000;1238.4540
816.0000;1232.4520
817.0000;1224.1900
818.0000;1219.8080
819.0000;1224.2750
820.0000;1235.3650
821.0000;1246.0140
822.0000;1252.1210
823.0000;1254.8070
824.0000;1255.6850
825.0000;1254.1320
826.0000;1252.2720
827.0000;1255.3110
828.0000;1260.5230
829.0000;1262.8730
830.0000;1256.0310
831.0000;1246.8820
832.0000;1244.9100
833.0000;1254.8950
834.0000;1268.2560
835.0000;1275.2070
836.0000;1274.5020
837.0000;1271.9420
838.0000;1274.8390
839.0000;1278.7790
840.0000;1280.0470
841.0000;1275.9670
842.0000;1269.7910
843.0000;1266.4010
844.0000;1267.3910
845.0000;1269.2350
846.0000;1266.3610
847.0000;1261.3320
848.0000;1260.5250
849.0000;1270.2100
850.0000;1284.3880
851.0000;1292.9690
852.0000;1289.7040
853.0000;1283.2080
854.0000;1285.5810
855.0000;1296.1290
856.0000;1305.8360
857.0000;1306.8290
858.0000;1300.4130
859.0000;1292.8130
860.0000;1287.6960
861.0000;1284.7890
862.0000;1284.7600
863.0000;1288.3170
864.0000;1292.3930
865.0000;1292.9310
866.0000;1289.8090
867.0000;1284.6190
868.0000;1277.0620
869.0000;1270.4140
870.0000;1267.9810
871.0000;1271.7060
872.0000;1280.4580
873.0000;1292.1040
874.0000;1304.7980
875.0000;1313.7770
876.0000;1316.3480
877.0000;1311.5110
878.0000;1304.9450
879.0000;1299.4580
880.0000;1296.4870
881.0000;1299.5190
882.0000;1309.7020
883.0000;1320.7750
884.0000;1325.9620
885.0000;1325.5190
886.0000;1324.8350
887.0000;1328.7500
888.0000;1333.4230
889.0000;1337.3010
890.0000;1339.2440
891.0000;1340.7410
892.0000;1345.0910
893.0000;1350.5480
894.0000;1353.8000
895.0000;1353.6520
896.0000;1349.4220
897.0000;1343.0690
898.0000;1335.1630
899.0000;1328.7710
900.0000;1326.1130
901.0000;1328.9830
902.0000;1336.0810
903.0000;1346.4590
904.0000;1357.9650
905.0000;1365.2400
906.0000;1365.3610
907.0000;1360.2960
908.0000;1355.5690
909.0000;1352.1610
910.0000;1351.0120
911.0000;1354.0280
912.0000;1360.6620
913.0000;1366.2580
914.0000;1367.1040
915.0000;1366.6030
916.0000;1370.4120
917.0000;1379.7190
918.0000;1387.5200
919.0000;1386.5600
920.0000;1378.4770
921.0000;1372.6300
922.0000;1378.4470
923.0000;1388.4140
924.0000;1392.4230
925.0000;1386.6340
926.0000;1378.2440
927.0000;1375.5400
928.0000;1378.0470
929.0000;1379.6000
930.0000;1372.7540
931.0000;1364.6920
932.0000;1363.1460
933.0000;1372.7230
934.0000;1385.1130
935.0000;1390.9970
936.0000;1388.8620
937.0000;1384.5830
938.0000;1384.3890
939.0000;1384.9120
940.0000;1383.5480
941.0000;1378.2340
942.0000;1374.7510
943.0000;1379.8840
944.0000;1393.3640
945.0000;1405.7840
946.0000;1407.4830
947.0000;1401.4490
948.0000;1396.4340
949.0000;1398.2300
950.0000;1400.9580
951.0000;1399.8850
952.0000;1394.7280
953.0000;1389.5110
954.0000;1387.1600
955.0000;1387.8450
956.0000;1389.6020
957.0000;1391.0560
958.0000;1393.2770
959.0000;1396.6150
960.0000;1400.4550
961.0000;1403.5270
962.0000;1404.1160
963.0000;1403.1160
964.0000;1404.4580
965.0000;1411.3420
966.0000;1418.9910
967.0000;1422.9160
968.0000;1421.4340
969.0000;1416.5310
970.0000;1409.3220
971.0000;1402.1320
972.0000;1399.4570
973.0000;1405.1160
974.0000;1414.8360
975.0000;1421.9870
976.0000;1424.0590
977.0000;1423.7130
978.0000;1424.2220
979.0000;1423.8640
980.0000;1422.5740
981.0000;1419.7150
982.0000;1418.2080
983.0000;1422.3440
984.0000;1432.7970
985.0000;1441.5980
986.0000;1440.7800
987.0000;1433.5680
988.0000;1430.3010
989.0000;1438.4350
990.0000;1450.7850
991.0000;1460.0150
992.0000;1463.4000
993.0000;1462.6950
994.0000;1461.1040
995.0000;1456.5680
996.0000;1450.6330
997.0000;1444.3240
998.0000;1439.0910
999.0000;1436.0660
1000.0000;1436.4150
1001.0000;1439.0800
1002.0000;1441.8310
1003.0000;1445.0070
1004.0000;1447.1350
1005.0000;1447.0230
1006.0000;1446.0900
1007.0000;1447.3130
1008.0000;1450.3370
1009.0000;1452.1880
1010.0000;1449.2010
1011.0000;1444.3430
1012.0000;1442.7580
1013.0000;1447.9670
1014.0000;1454.9780
1015.0000;1458.6050
1016.0000;1457.9060
1017.0000;1456.7990
1018.0000;1459.3700
1019.0000;1463.0620
1020.0000;1465.7880
1021.0000;1466.1880
1022.0000;1466.3460
1023.0000;1470.0600
1024.0000;1475.9080
1025.0000;1479.0410
1026.0000;1477.1330
1027.0000;1470.0660
1028.0000;1459.4690
1029.0000;1445.9930
1030.0000;1437.7310
1031.0000;1442.7730
1032.0000;1459.9980
1033.0000;1474.2800
1034.0000;1471.7340
1035.0000;1462.3320
1036.0000;1460.6350
1037.0000;1470.5790
1038.0000;1481.1950
1039.0000;1483.1830
1040.0000;1477.5190
1041.0000;1470.9200
1042.0000;1467.8900
1043.0000;1466.3580
1044.0000;1464.6600
1045.0000;1463.2000
1046.0000;1462.7810
1047.0000;1463.0190
1048.0000;1464.3300
1049.0000;1466.0880
1050.0000;1468.1490
1051.0000;1469.2820
1052.0000;1467.8660
1053.0000;1463.9320
1054.0000;1461.2350
1055.0000;1463.9050
1056.0000;1469.2650
1057.0000;1471.9410
1058.0000;1468.7970
1059.0000;1466.0030
1060.0000;1471.0710
1061.0000;1482.2690
1062.0000;1491.2790
1063.0000;1491.2570
1064.0000;1486.3190
1065.0000;1485.2160
1066.0000;1490.4110
1067.0000;1494.8880
1068.0000;1492.3450
1069.0000;1484.7690
1070.0000;1478.8510
1071.0000;1478.9080
1072.0000;1482.7680
1073.0000;1487.1360
1074.0000;1491.3390
1075.0000;1494.7370
1076.0000;1497.1280
1077.0000;1497.2980
1078.0000;1496.0080
1079.0000;1493.3760
1080.0000;1490.6110
1081.0000;1489.6880
1082.0000;1491.1390
1083.0000;1493.6610
1084.0000;1496.1350
1085.0000;1498.6340
1086.0000;1501.1440
1087.0000;1503.3160
1088.0000;1504.2080
1089.0000;1503.1890
1090.0000;1500.7490
1091.0000;1499.9820
1092.0000;1503.3120
1093.0000;1508.3900
1094.0000;1512.5970
1095.0000;1514.9090
1096.0000;1516.1000
1097.0000;1519.6900
1098.0000;1521.0860
1099.0000;1515.6440
1100.0000;1499.9950
1101.0000;1484.9150
1102.0000;1481.1260
1103.0000;1490.9540
1104.0000;1504.8420
1105.0000;1516.2640
1106.0000;1524.6380
1107.0000;1528.4730
1108.0000;1525.5520
1109.0000;1519.7050
1110.0000;1516.4450
1111.0000;1515.6220
1112.0000;1517.7140
1113.0000;1523.5010
1114.0000;1530.3490
1115.0000;1535.1240
1116.0000;1536.0540
1117.0000;1534.0790
1118.0000;1530.3720
1119.0000;1525.0670
1120.0000;1521.4290
1121.0000;1520.9670
1122.0000;1521.4620
1123.0000;1519.9950
1124.0000;1517.1920
1125.0000;1512.8280
1126.0000;1504.6650
1127.0000;1500.3040
1128.0000;1509.1710
1129.0000;1531.2510
1130.0000;1549.0930
1131.0000;1546.9030
1132.0000;1529.7280
1133.0000;1513.1290
1134.0000;1504.0870
1135.0000;1500.1060
1136.0000;1497.2570
1137.0000;1498.4190
1138.0000;1502.4030
1139.0000;1507.7740
1140.0000;1513.8230
1141.0000;1519.1570
1142.0000;1522.0630
1143.0000;1522.1110
1144.0000;1519.4990
1145.0000;1514.7690
1146.0000;1511.8370
1147.0000;1513.1440
1148.0000;1515.7240
1149.0000;1516.3510
1150.0000;1514.9510
1151.0000;1511.8950
1152.0000;1505.8340
1153.0000;1501.0360
1154.0000;1501.8430
1155.0000;1509.4850
1156.0000;1518.4550
1157.0000;1523.2180
1158.0000;1524.0230
1159.0000;1522.8100
1160.0000;1519.7820
1161.0000;1517.0430
1162.0000;1517.5090
1163.0000;1521.5960
1164.0000;1528.5850
1165.0000;1538.7560
1166.0000;1547.6640
1167.0000;1549.5940
1168.0000;1543.0550
1169.0000;1536.5420
1170.0000;1541.4310
1171.0000;1550.5190
1172.0000;1552.6090
1173.0000;1542.8900
1174.0000;1532.2840
1175.0000;1534.0360
1176.0000;1544.8790
1177.0000;1551.3750
1178.0000;1544.4390
1179.0000;1532.5490
1180.0000;1525.8950
1181.0000;1526.1740
1182.0000;1528.6000
1183.0000;1526.5870
1184.0000;1526.0800
1185.0000;1532.1240
1186.0000;1546.3310
1187.0000;1557.3140
1188.0000;1553.8210
1189.0000;1539.9160
1190.0000;1532.3680
1191.0000;1540.9090
1192.0000;1554.6970
1193.0000;1562.0770
1194.0000;1562.2100
1195.0000;1559.5710
1196.0000;1558.4020
1197.0000;1556.0380
1198.0000;1552.3580
1199.0000;1547.8360
1200.0000;1544.0240
1201.0000;1541.5150
1202.0000;1541.0930
1203.0000;1541.0740
1204.0000;1540.7620
1205.0000;1542.1460
1206.0000;1545.9700
1207.0000;1551.9250
1208.0000;1558.0700
1209.0000;1562.7160
1210.0000;1566.7460
1211.0000;1573.0340
1212.0000;1580.6550
1213.0000;1587.6500
1214.0000;1595.9750
1215.0000;1600.0950
1216.0000;1597.4980
1217.0000;1587.1990
1218.0000;1577.4520
1219.0000;1580.0360
1220.0000;1589.5350
1221.0000;1592.8480
1222.0000;1583.4740
1223.0000;1570.6940
1224.0000;1562.9720
1225.0000;1561.1570
1226.0000;1561.6560
1227.0000;1562.3150
1228.0000;1564.0860
1229.0000;1564.2560
1230.0000;1562.8630
1231.0000;1562.2090
1232.0000;1563.7530
1233.0000;1566.9480
1234.0000;1570.7520
1235.0000;1574.5690
1236.0000;1578.7370
1237.0000;1585.0980
1238.0000;1590.5810
1239.0000;1593.4400
1240.0000;1592.4360
1241.0000;1588.0390
1242.0000;1582.3770
1243.0000;1576.0810
1244.0000;1570.4950
1245.0000;1565.2360
1246.0000;1566.0990
1247.0000;1578.3080
1248.0000;1599.8450
1249.0000;1616.4990
1250.0000;1617.9440
1251.0000;1608.0260
1252.0000;1597.7290
1253.0000;1589.4840
1254.0000;1585.9730
1255.0000;1592.1580
1256.0000;1603.4660
1257.0000;1608.5740
1258.0000;1603.1010
1259.0000;1595.8850
1260.0000;1596.2000
1261.0000;1601.2090
1262.0000;1605.2140
1263.0000;1605.3630
1264.0000;1603.9380
1265.0000;1602.7830
1266.0000;1602.2240
1267.0000;1603.8100
1268.0000;1609.1240
1269.0000;1614.8830
1270.0000;1618.0090
1271.0000;1617.0770
1272.0000;1613.1960
1273.0000;1606.2080
1274.0000;1599.8290
1275.0000;1599.6040
1276.0000;1607.4050
1277.0000;1616.2230
1278.0000;1619.3800
1279.0000;1619.5550
1280.0000;1621.7700
1281.0000;1626.8180
1282.0000;1632.0040
1283.0000;1636.1470
1284.0000;1638.8900
1285.0000;1643.0420
1286.0000;1649.8200
1287.0000;1653.3160
1288.0000;1648.3640
1289.0000;1637.3050
1290.0000;1629.6950
1291.0000;1631.4990
1292.0000;1638.0910
1293.0000;1642.4780
1294.0000;1644.8850
1295.0000;1646.8030
1296.0000;1648.7250
1297.0000;1650.0410
1298.0000;1652.1590
1299.0000;1654.3840
1300.0000;1655.6700
1301.0000;1655.9240
1302.0000;1654.5920
1303.0000;1651.6630
1304.0000;1647.8590
1305.0000;1646.9520
1306.0000;1653.9790
1307.0000;1663.4510
1308.0000;1666.6200
1309.0000;1660.0380
1310.0000;1653.3190
1311.0000;1656.9570
1312.0000;1665.3610
1313.0000;1669.0590
1314.0000;1663.8000
1315.0000;1658.1930
1316.0000;1661.1920
1317.0000;1669.7150
1318.0000;1677.0260
1319.0000;1679.1510
1320.0000;1678.5970
1321.0000;1679.4720
1322.0000;1679.7510
1323.0000;1677.2230
1324.0000;1669.7600
1325.0000;1664.1400
1326.0000;1668.7650
1327.0000;1681.0830
1328.0000;1687.5440
1329.0000;1676.2020
1330.0000;1662.6730
1331.0000;1667.6550
1332.0000;1690.2780
1333.0000;1709.5220
1334.0000;1712.5550
1335.0000;1703.8230
1336.0000;1693.7250
1337.0000;1682.7980
1338.0000;1673.7050
1339.0000;1667.5260
1340.0000;1666.8460
1341.0000;1668.8870
1342.0000;1673.9500
1343.0000;1679.2000
1344.0000;1682.1010
1345.0000;1682.2020
1346.0000;1680.0450
1347.0000;1675.6710
1348.0000;1673.0140
1349.0000;1675.6200
1350.0000;1682.1460
1351.0000;1688.9400
1352.0000;1694.7060
1353.0000;1698.0710
1354.0000;1700.2350
1355.0000;1698.2380
1356.0000;1691.5750
1357.0000;1680.5080
1358.0000;1670.7530
1359.0000;1667.2490
1360.0000;1671.4910
1361.0000;1679.2130
1362.0000;1689.3190
1363.0000;1699.3500
1364.0000;1707.0720
1365.0000;1710.4160
1366.0000;1711.0230
1367.0000;1708.9340
1368.0000;1706.6580
1369.0000;1710.7510
1370.0000;1717.4690
1371.0000;1718.1510
1372.0000;1707.9110
1373.0000;1697.3680
1374.0000;1696.0220
1375.0000;1704.0750
1376.0000;1715.8280
1377.0000;1729.2730
1378.0000;1736.7330
1379.0000;1729.2800
1380.0000;1709.9660
1381.0000;1698.1570
1382.0000;1706.0180
1383.0000;1719.8730
1384.0000;1723.1270
1385.0000;1718.1900
1386.0000;1714.7340
1387.0000;1718.3480
1388.0000;1723.3900
1389.0000;1725.0620
1390.0000;1723.6670
1391.0000;1722.9940
1392.0000;1725.8350
1393.0000;1727.2590
1394.0000;1721.6080
1395.0000;1711.2210
1396.0000;1705.9580
1397.0000;1712.8240
1398.0000;1723.2540
1399.0000;1725.5340
1400.0000;1720.4630
1401.0000;1716.4940
1402.0000;1718.8100
1403.0000;1722.9790
1404.0000;1724.5660
1405.0000;1724.1250
1406.0000;1725.3160
1407.0000;1730.5840
1408.0000;1736.0530
1409.0000;1738.1210
1410.0000;1736.7250
1411.0000;1736.5110
1412.0000;1740.7920
1413.0000;1745.3260
1414.0000;1746.5040
1415.0000;1744.3590
1416.0000;1743.0380
1417.0000;1745.7640
1418.0000;1748.0280
1419.0000;1745.1160
1420.0000;1737.9820
1421.0000;1732.7400
1422.0000;1732.3290
1423.0000;1735.9640
1424.0000;1741.6110
1425.0000;1748.8230
1426.0000;1755.6130
1427.0000;1760.6220
1428.0000;1762.5390
1429.0000;1762.5740
1430.0000;1759.8630
1431.0000;1756.7620
1432.0000;1754.7610
1433.0000;1753.8340
1434.0000;1754.3770
1435.0000;1756.1160
1436.0000;1756.8090
1437.0000;1755.3850
1438.0000;1751.7250
1439.0000;1744.0500
1440.0000;1735.6870
1441.0000;1733.0690
1442.0000;1739.9750
1443.0000;1751.7010
1444.0000;1764.5760
1445.0000;1773.8760
1446.0000;1771.5140
1447.0000;1752.8730
1448.0000;1733.5950
1449.0000;1732.3390
1450.0000;1745.2810
1451.0000;1756.0400
1452.0000;1757.9310
1453.0000;1755.9290
1454.0000;1753.0270
1455.0000;1749.9190
1456.0000;1751.7010
1457.0000;1760.3180
1458.0000;1768.1610
1459.0000;1767.8470
1460.0000;1761.9270
1461.0000;1757.8850
1462.0000;1758.1290
1463.0000;1760.0920
1464.0000;1760.4840
1465.0000;1762.3690
1466.0000;1769.7760
1467.0000;1782.5570
1468.0000;1790.6000
1469.0000;1783.1030
1470.0000;1769.2950
1471.0000;1767.7460
1472.0000;1781.6960
1473.0000;1793.2650
1474.0000;1785.2850
1475.0000;1770.8250
1476.0000;1769.4030
1477.0000;1782.0300
1478.0000;1792.4400
1479.0000;1787.1010
1480.0000;1775.5400
1481.0000;1770.4130
1482.0000;1772.5310
1483.0000;1775.4410
1484.0000;1774.8170
1485.0000;1774.1170
1486.0000;1775.9050
1487.0000;1779.2830
1488.0000;1780.7920
1489.0000;1777.4830
1490.0000;1774.8050
1491.0000;1780.2360
1492.0000;1791.1720
1493.0000;1797.9370
1494.0000;1795.4200
1495.0000;1789.6710
1496.0000;1788.8100
1497.0000;1790.6670
1498.0000;1790.9760
1499.0000;1788.0630
1500.0000;1784.4120
1501.0000;1781.5160
1502.0000;1779.7740
1503.0000;1777.6740
1504.0000;1775.3360
1505.0000;1776.0470
1506.0000;1782.3240
1507.0000;1791.2350
1508.0000;1797.9500
1509.0000;1799.9050
1510.0000;1799.8390
1511.0000;1800.7260
1512.0000;1801.4880
1513.0000;1804.6620
1514.0000;1809.7270
1515.0000;1812.4490
1516.0000;1809.5280
1517.0000;1804.8540
1518.0000;1806.7150
1519.0000;1812.9370
1520.0000;1812.3780
1521.0000;1796.2830
1522.0000;1779.1020
1523.0000;1775.3080
1524.0000;1785.2810
1525.0000;1798.5850
1526.0000;1810.1500
1527.0000;1817.1300
1528.0000;1816.9660
1529.0000;1808.8530
1530.0000;1799.8550
1531.0000;1793.1240
1532.0000;1791.5960
1533.0000;1800.2320
1534.0000;1813.6460
1535.0000;1819.1000
1536.0000;1812.8480
1537.0000;1802.7980
1538.0000;1795.6510
1539.0000;1791.7300
1540.0000;1791.9200
1541.0000;1797.1440
1542.0000;1803.2930
1543.0000;1807.7860
1544.0000;1809.5470
1545.0000;1807.7160
1546.0000;1802.4930
1547.0000;1798.5340
1548.0000;1798.4970
1549.0000;1801.9960
1550.0000;1808.2840
1551.0000;1816.0410
1552.0000;1823.1530
1553.0000;1827.6480
1554.0000;1827.4770
1555.0000;1822.1370
1556.0000;1813.4090
1557.0000;1808.3400
1558.0000;1809.5630
1559.0000;1812.5960
1560.0000;1811.5630
1561.0000;1811.4570
1562.0000;1817.7090
1563.0000;1829.0200
1564.0000;1835.0600
1565.0000;1827.6270
1566.0000;1816.4020
1567.0000;1817.0620
1568.0000;1826.5160
1569.0000;1828.5760
1570.0000;1814.1010
1571.0000;1798.4380
1572.0000;1797.1190
1573.0000;1806.5030
1574.0000;1811.8260
1575.0000;1807.8660
1576.0000;1803.1250
1577.0000;1805.3210
1578.0000;1809.6410
1579.0000;1808.5390
1580.0000;1801.3980
1581.0000;1797.2310
1582.0000;1802.9250
1583.0000;1812.7470
1584.0000;1818.2440
1585.0000;1819.0610
1586.0000;1821.6560
1587.0000;1830.0490
1588.0000;1837.7000
1589.0000;1840.5880
1590.0000;1837.6500
1591.0000;1831.9150
1592.0000;1824.5380
1593.0000;1819.5340
1594.0000;1819.5850
1595.0000;1826.2410
1596.0000;1838.1880
1597.0000;1853.6580
1598.0000;1865.1520
1599.0000;1868.2200
1600.0000;1862.2960
1601.0000;1855.0880
1602.0000;1846.1420
1603.0000;1834.0190
1604.0000;1818.7530
1605.0000;1809.1940
1606.0000;1811.1740
1607.0000;1824.5610
1608.0000;1835.7330
1609.0000;1839.5130
1610.0000;1840.3810
1611.0000;1844.1500
1612.0000;1845.5350
1613.0000;1841.7790
1614.0000;1832.8170
1615.0000;1827.5470
1616.0000;1833.1300
1617.0000;1842.0480
1618.0000;1841.1920
1619.0000;1833.6360
1620.0000;1833.4670
1621.0000;1848.2330
1622.0000;1864.1690
1623.0000;1868.3280
1624.0000;1861.9850
1625.0000;1853.6100
1626.0000;1845.9620
1627.0000;1838.3640
1628.0000;1829.9360
1629.0000;1825.1460
1630.0000;1822.5960
1631.0000;1824.8770
1632.0000;1833.8960
1633.0000;1850.2330
1634.0000;1865.9880
1635.0000;1874.4900
1636.0000;1872.1260
1637.0000;1863.6570
1638.0000;1851.0140
1639.0000;1840.5370
1640.0000;1840.4630
1641.0000;1847.9140
1642.0000;1852.0940
1643.0000;1852.1980
1644.0000;1854.0490
1645.0000;1862.2080
1646.0000;1869.1530
1647.0000;1869.5020
1648.0000;1862.6220
1649.0000;1853.1500
1650.0000;1843.7530
1651.0000;1837.9900
1652.0000;1838.3290
1653.0000;1843.9990
1654.0000;1847.6930
1655.0000;1847.8010
1656.0000;1847.2210
1657.0000;1847.3910
1658.0000;1848.0280
1659.0000;1850.3390
1660.0000;1853.3820
1661.0000;1855.0580
1662.0000;1854.4900
1663.0000;1851.0770
1664.0000;1843.2030
1665.0000;1835.1180
1666.0000;1833.0410
1667.0000;1839.1620
1668.0000;1848.5940
1669.0000;1858.1660
1670.0000;1863.9910
1671.0000;1861.2560
1672.0000;1850.0570
1673.0000;1840.0290
1674.0000;1835.9530
1675.0000;1833.4520
1676.0000;1823.8330
1677.0000;1816.7150
1678.0000;1823.0880
1679.0000;1844.3360
1680.0000;1862.8330
1681.0000;1866.9630
1682.0000;1861.2400
1683.0000;1856.0210
1684.0000;1851.1440
1685.0000;1849.8810
1686.0000;1855.0270
1687.0000;1858.9890
1688.0000;1852.6540
1689.0000;1842.7610
1690.0000;1839.5890
1691.0000;1844.9930
1692.0000;1847.6700
1693.0000;1839.4170
1694.0000;1829.0310
1695.0000;1824.9660
1696.0000;1826.7290
1697.0000;1827.6520
1698.0000;1825.5800
1699.0000;1824.8000
1700.0000;1827.0370
1701.0000;1832.0570
1702.0000;1839.8270
1703.0000;1848.0590
1704.0000;1851.2030
1705.0000;1846.1080
1706.0000;1836.3610
1707.0000;1828.8270
1708.0000;1823.3380
1709.0000;1816.9010
1710.0000;1810.3440
1711.0000;1807.6680
1712.0000;1810.0140
1713.0000;1816.5510
1714.0000;1822.9820
1715.0000;1827.5440
1716.0000;1828.2600
1717.0000;1823.7000
1718.0000;1816.6670
1719.0000;1810.3290
1720.0000;1806.5800
1721.0000;1806.3300
1722.0000;1810.7120
1723.0000;1817.4750
1724.0000;1824.0310
1725.0000;1831.0150
1726.0000;1840.6460
1727.0000;1849.1930
1728.0000;1853.5920
1729.0000;1852.0630
1730.0000;1847.7110
1731.0000;1846.1000
1732.0000;1843.4760
1733.0000;1836.4780
1734.0000;1827.2370
1735.0000;1821.3000
1736.0000;1821.8330
1737.0000;1826.6380
1738.0000;1831.4680
1739.0000;1835.6940
1740.0000;1836.4650
1741.0000;1832.8880
1742.0000;1828.6850
1743.0000;1825.4780
1744.0000;1826.9180
1745.0000;1839.2550
1746.0000;1855.4010
1747.0000;1858.4110
1748.0000;1841.6190
1749.0000;1824.5170
1750.0000;1823.1510
1751.0000;1829.2010
1752.0000;1831.0280
1753.0000;1829.0290
1754.0000;1824.5930
1755.0000;1817.7540
1756.0000;1814.3830
1757.0000;1819.2360
1758.0000;1830.1700
1759.0000;1841.3270
1760.0000;1850.2890
1761.0000;1855.8710
1762.0000;1856.9930
1763.0000;1856.2820
1764.0000;1860.4910
1765.0000;1866.9680
1766.0000;1875.8210
1767.0000;1884.2640
1768.0000;1884.5350
1769.0000;1870.7810
1770.0000;1852.1360
1771.0000;1839.5620
1772.0000;1835.9490
1773.0000;1836.6740
1774.0000;1841.7390
1775.0000;1846.2770
1776.0000;1844.0390
1777.0000;1838.9850
1778.0000;1835.7860
1779.0000;1835.2660
1780.0000;1837.4880
1781.0000;1842.7530
1782.0000;1848.0000
1783.0000;1850.5390
1784.0000;1850.7740
1785.0000;1851.6840
1786.0000;1852.8540
1787.0000;1854.2070
1788.0000;1856.1280
1789.0000;1856.2980
1790.0000;1852.8490
1791.0000;1847.7460
1792.0000;1844.6280
1793.0000;1844.6430
1794.0000;1844.9070
1795.0000;1843.5520
1796.0000;1843.4470
1797.0000;1846.7440
1798.0000;1851.4900
1799.0000;1854.3450
1800.0000;1853.9410
1801.0000;1852.3570
1802.0000;1851.7690
1803.0000;1849.0190
1804.0000;1840.6490
1805.0000;1830.6440
1806.0000;1824.2660
1807.0000;1824.6370
1808.0000;1828.0710
1809.0000;1831.0130
1810.0000;1835.3000
1811.0000;1841.7290
1812.0000;1847.5120
1813.0000;1848.6380
1814.0000;1843.4550
1815.0000;1837.0830
1816.0000;1834.4910
1817.0000;1833.4790
1818.0000;1830.8580
1819.0000;1828.2730
1820.0000;1827.0980
1821.0000;1827.9130
1822.0000;1828.5150
1823.0000;1826.5310
1824.0000;1823.9570
1825.0000;1822.2690
1826.0000;1821.8250
1827.0000;1822.0350
1828.0000;1822.7300
1829.0000;1821.0420
1830.0000;1813.1580
1831.0000;1805.1750
1832.0000;1803.3230
1833.0000;1808.1780
1834.0000;1813.9310
1835.0000;1818.2260
1836.0000;1823.9930
1837.0000;1833.1940
1838.0000;1842.2470
1839.0000;1851.4360
1840.0000;1857.4690
1841.0000;1861.1600
1842.0000;1861.8370
1843.0000;1858.7850
1844.0000;1853.8210
1845.0000;1847.2200
1846.0000;1841.3740
1847.0000;1837.0160
1848.0000;1831.8620
1849.0000;1826.0120
1850.0000;1823.5360
1851.0000;1826.5530
1852.0000;1832.0490
1853.0000;1832.0170
1854.0000;1828.7110
1855.0000;1829.9310
1856.0000;1838.0040
1857.0000;1849.6290
1858.0000;1865.2370
1859.0000;1874.6910
1860.0000;1868.3520
1861.0000;1849.6850
1862.0000;1839.6850
1863.0000;1845.5760
1864.0000;1852.7400
1865.0000;1850.0170
1866.0000;1844.3970
1867.0000;1840.3610
1868.0000;1839.4570
1869.0000;1843.8660
1870.0000;1853.7080
1871.0000;1860.1110
1872.0000;1855.9450
1873.0000;1847.6140
1874.0000;1844.4780
1875.0000;1845.5270
1876.0000;1846.9140
1877.0000;1847.9620
1878.0000;1847.3560
1879.0000;1843.3030
1880.0000;1839.7870
1881.0000;1839.8330
1882.0000;1844.3990
1883.0000;1854.8110
1884.0000;1867.8820
1885.0000;1870.9040
1886.0000;1854.8360
1887.0000;1837.1300
1888.0000;1837.3320
1889.0000;1850.9660
1890.0000;1864.6560
1891.0000;1874.9190
1892.0000;1877.8070
1893.0000;1869.1250
1894.0000;1860.6690
1895.0000;1869.7360
1896.0000;1881.8800
1897.0000;1874.2050
1898.0000;1851.1260
1899.0000;1841.6430
1900.0000;1858.9410
1901.0000;1876.5950
1902.0000;1868.5100
1903.0000;1850.8690
1904.0000;1843.5580
1905.0000;1846.5360
1906.0000;1848.8180
1907.0000;1847.9320
1908.0000;1851.7200
1909.0000;1866.0450
1910.0000;1879.8520
1911.0000;1880.1140
1912.0000;1869.8110
1913.0000;1864.0570
1914.0000;1866.7820
1915.0000;1871.8080
1916.0000;1876.3200
1917.0000;1879.5740
1918.0000;1881.5560
1919.0000;1880.0750
1920.0000;1873.0960
1921.0000;1863.3170
1922.0000;1862.6100
1923.0000;1878.4330
1924.0000;1895.7150
1925.0000;1901.8570
1926.0000;1897.8940
1927.0000;1891.2550
1928.0000;1882.2930
1929.0000;1873.0010
1930.0000;1866.3070
1931.0000;1865.0930
1932.0000;1871.3940
1933.0000;1880.4150
1934.0000;1881.5130
1935.0000;1876.5700
1936.0000;1874.6070
1937.0000;1877.1980
1938.0000;1877.4940
1939.0000;1870.4960
1940.0000;1865.4230
1941.0000;1873.2110
1942.0000;1885.5930
1943.0000;1884.5490
1944.0000;1870.0570
1945.0000;1862.6100
1946.0000;1872.3190
1947.0000;1884.1090
1948.0000;1882.8810
1949.0000;1877.5920
1950.0000;1881.4770
1951.0000;1890.7110
1952.0000;1893.4120
1953.0000;1885.6760
1954.0000;1881.9460
1955.0000;1893.4760
1956.0000;1907.5210
1957.0000;1911.5540
1958.0000;1906.2550
1959.0000;1897.4640
1960.0000;1888.1960
1961.0000;1887.3220
1962.0000;1901.7600
1963.0000;1915.0000
1964.0000;1909.5120
1965.0000;1895.4090
1966.0000;1891.1180
1967.0000;1895.2660
1968.0000;1895.2550
1969.0000;1887.8000
1970.0000;1879.9750
1971.0000;1875.1300
1972.0000;1875.1950
1973.0000;1879.0410
1974.0000;1887.7330
1975.0000;1899.6070
1976.0000;1911.4800
1977.0000;1916.7490
1978.0000;1910.9640
1979.0000;1905.0000
1980.0000;1912.8120
1981.0000;1924.6580
1982.0000;1930.1240
1983.0000;1927.4220
1984.0000;1919.7980
1985.0000;1908.8270
1986.0000;1902.2910
1987.0000;1906.5690
1988.0000;1914.8410
1989.0000;1917.6840
1990.0000;1917.1070
1991.0000;1916.4260
1992.0000;1916.5880
1993.0000;1921.3560
1994.0000;1932.2190
1995.0000;1943.3690
1996.0000;1951.1690
1997.0000;1954.0210
1998.0000;1955.4810
1999.0000;1953.4360
2000.0000;1951.3400
2001.0000;1949.0020
2002.0000;1939.9280
2003.0000;1920.2240
2004.0000;1906.1260
2005.0000;1911.2070
2006.0000;1928.2290
2007.0000;1937.2760
2008.0000;1938.0560
2009.0000;1939.4720
2010.0000;1942.9320
2011.0000;1944.0110
2012.0000;1941.4150
2013.0000;1936.9700
2014.0000;1933.3900
2015.0000;1931.4290
2016.0000;1931.6880
2017.0000;1933.8930
2018.0000;1933.8170
2019.0000;1929.5580
2020.0000;1923.4050
2021.0000;1916.5140
2022.0000;1910.8800
2023.0000;1905.5840
2024.0000;1904.6850
2025.0000;1910.1390
2026.0000;1921.6180
2027.0000;1933.7370
2028.0000;1942.7730
2029.0000;1945.9080
2030.0000;1941.7130
2031.0000;1934.1730
2032.0000;1934.6580
2033.0000;1939.9250
2034.0000;1939.6000
2035.0000;1932.7830
2036.0000;1927.2880
2037.0000;1927.3560
2038.0000;1929.4230
2039.0000;1930.3280
2040.0000;1929.8690
2041.0000;1925.9700
2042.0000;1920.2200
2043.0000;1917.2450
2044.0000;1918.2900
2045.0000;1916.2190
2046.0000;1905.9950
2047.0000;1900.4000
2048.0000;1911.3390
2049.0000;1927.1700
2050.0000;1927.0420
2051.0000;1914.4820
2052.0000;1909.6890
2053.0000;1916.3350
2054.0000;1920.7330
2055.0000;1914.8720
2056.0000;1908.6000
2057.0000;1910.7810
2058.0000;1917.0530
2059.0000;1920.6240
2060.0000;1921.8380
2061.0000;1925.4980
2062.0000;1931.2720
2063.0000;1934.0610
2064.0000;1931.0410
2065.0000;1925.2000
2066.0000;1920.3540
2067.0000;1917.5630
2068.0000;1917.3950
2069.0000;1921.1250
2070.0000;1928.6170
2071.0000;1938.2370
2072.0000;1939.6080
2073.0000;1925.8900
2074.0000;1913.1250
2075.0000;1919.5300
2076.0000;1932.0590
2077.0000;1931.1410
2078.0000;1919.2370
2079.0000;1906.4960
2080.0000;1897.6780
2081.0000;1897.5430
2082.0000;1909.7130
2083.0000;1922.6900
2084.0000;1921.8510
2085.0000;1916.3300
2086.0000;1919.3350
2087.0000;1927.6500
2088.0000;1935.4070
2089.0000;1939.9030
2090.0000;1937.3070
2091.0000;1925.9080
2092.0000;1918.5670
2093.0000;1930.1560
2094.0000;1943.6780
2095.0000;1936.6110
2096.0000;1918.5170
2097.0000;1913.0360
2098.0000;1921.3800
2099.0000;1926.0300
2100.0000;1920.3050
2101.0000;1916.3390
2102.0000;1920.7800
2103.0000;1930.5690
2104.0000;1944.5820
2105.0000;1957.3660
2106.0000;1963.4920
2107.0000;1960.8840
2108.0000;1959.2820
2109.0000;1960.4020
2110.0000;1955.4340
2111.0000;1940.3100
2112.0000;1924.0000
2113.0000;1910.2230
2114.0000;1907.6070
2115.0000;1921.4390
2116.0000;1944.6740
2117.0000;1948.7570
2118.0000;1928.5890
2119.0000;1913.1180
2120.0000;1916.9800
2121.0000;1928.2140
2122.0000;1937.7380
2123.0000;1945.9550
2124.0000;1951.5490
2125.0000;1952.7600
2126.0000;1953.9100
2127.0000;1954.2660
2128.0000;1954.6690
2129.0000;1955.4430
2130.0000;1954.3970
2131.0000;1950.4530
2132.0000;1945.7790
2133.0000;1943.9020
2134.0000;1941.7850
2135.0000;1930.8890
2136.0000;1918.3310
2137.0000;1919.7410
2138.0000;1937.3540
2139.0000;1950.5450
2140.0000;1948.0760
2141.0000;1941.4150
2142.0000;1940.8990
2143.0000;1940.9330
2144.0000;1938.1530
2145.0000;1934.1350
2146.0000;1930.3340
2147.0000;1927.9340
2148.0000;1927.1180
2149.0000;1928.1530
2150.0000;1929.1690
2151.0000;1928.3710
2152.0000;1928.0000
2153.0000;1931.2770
2154.0000;1933.4490
2155.0000;1929.8070
2156.0000;1920.2070
2157.0000;1904.3490
2158.0000;1887.4050
2159.0000;1885.0420
2160.0000;1904.4410
2161.0000;1920.6780
2162.0000;1912.2980
2163.0000;1899.2700
2164.0000;1904.5800
2165.0000;1918.5500
2166.0000;1929.8970
2167.0000;1935.0260
2168.0000;1931.7820
2169.0000;1920.0560
2170.0000;1911.5480
2171.0000;1913.7310
2172.0000;1915.1060
2173.0000;1904.2640
2174.0000;1896.1210
2175.0000;1904.3580
2176.0000;1920.9320
2177.0000;1927.4040
2178.0000;1923.0900
2179.0000;1916.7360
2180.0000;1911.2290
2181.0000;1910.0780
2182.0000;1916.2640
2183.0000;1922.7020
2184.0000;1922.5000
2185.0000;1919.8030
2186.0000;1921.4600
2187.0000;1922.9170
2188.0000;1917.2950
2189.0000;1906.9250
2190.0000;1903.0360
2191.0000;1908.3670
2192.0000;1910.7310
2193.0000;1903.4190
2194.0000;1898.9250
2195.0000;1907.0120
2196.0000;1917.7830
2197.0000;1919.0580
2198.0000;1915.4320
2199.0000;1921.2210
2200.0000;1929.9970
2201.0000;1920.6720
2202.0000;1891.2820
2203.0000;1873.4410
2204.0000;1882.9990
2205.0000;1899.1780
2206.0000;1903.6540
2207.0000;1904.1620
2208.0000;1907.9270
2209.0000;1909.6900
2210.0000;1906.5140
2211.0000;1899.0510
2212.0000;1892.7000
2213.0000;1889.7300
2214.0000;1888.4030
2215.0000;1888.5610
2216.0000;1889.3850
2217.0000;1889.1080
2218.0000;1888.9960
2219.0000;1890.4710
2220.0000;1891.1010
2221.0000;1886.5500
2222.0000;1880.2740
2223.0000;1880.9800
2224.0000;1888.6560
2225.0000;1889.6660
2226.0000;1879.9830
2227.0000;1874.8660
2228.0000;1885.0140
2229.0000;1895.3410
2230.0000;1891.2350
2231.0000;1882.1310
2232.0000;1881.6400
2233.0000;1886.3190
2234.0000;1887.6220
2235.0000;1886.1590
2236.0000;1887.0220
2237.0000;1891.1550
2238.0000;1896.6520
2239.0000;1902.5050
2240.0000;1903.0680
2241.0000;1893.1510
2242.0000;1884.2040
2243.0000;1891.6840
2244.0000;1904.3340
2245.0000;1901.6350
2246.0000;1887.0440
2247.0000;1876.3330
2248.0000;1873.2320
2249.0000;1872.3550
2250.0000;1873.0040
2251.0000;1875.8960
2252.0000;1879.8820
2253.0000;1884.8340
2254.0000;1891.1230
2255.0000;1894.5370
2256.0000;1891.3020
2257.0000;1885.5690
2258.0000;1889.7640
2259.0000;1899.7620
2260.0000;1900.7480
2261.0000;1889.3850
2262.0000;1872.9320
2263.0000;1855.9290
2264.0000;1843.5390
2265.0000;1839.0470
2266.0000;1843.4850
2267.0000;1851.2930
2268.0000;1861.6700
2269.0000;1868.4550
2270.0000;1870.9150
2271.0000;1873.4800
2272.0000;1875.1410
2273.0000;1877.9960
2274.0000;1881.1250
2275.0000;1878.8000
2276.0000;1868.9560
2277.0000;1859.1540
2278.0000;1855.0500
2279.0000;1855.6040
2280.0000;1858.0900
2281.0000;1861.0750
2282.0000;1857.2370
2283.0000;1852.1000
2284.0000;1857.3890
2285.0000;1870.8590
2286.0000;1880.5190
2287.0000;1881.9040
2288.0000;1877.8240
2289.0000;1869.7310
2290.0000;1867.6650
2291.0000;1881.0020
2292.0000;1892.2240
2293.0000;1881.5790
2294.0000;1866.0980
2295.0000;1870.3290
2296.0000;1883.4280
2297.0000;1882.5580
2298.0000;1870.0590
2299.0000;1862.2120
2300.0000;1862.6260
2301.0000;1867.9800
2302.0000;1876.6550
2303.0000;1882.0560
2304.0000;1879.0090
2305.0000;1872.1400
2306.0000;1864.5020
2307.0000;1862.7330
2308.0000;1875.2580
2309.0000;1892.4990
2310.0000;1895.9270
2311.0000;1886.6300
2312.0000;1879.3330
2313.0000;1874.6500
2314.0000;1866.8600
2315.0000;1856.9280
2316.0000;1852.7210
2317.0000;1858.2870
2318.0000;1866.2450
2319.0000;1868.8490
2320.0000;1870.6960
2321.0000;1875.7660
2322.0000;1880.9680
2323.0000;1886.2140
2324.0000;1889.5370
2325.0000;1890.7680
2326.0000;1891.2440
2327.0000;1901.0950
2328.0000;1916.6940
2329.0000;1918.6730
2330.0000;1899.8890
2331.0000;1880.4030
2332.0000;1871.0090
2333.0000;1875.4780
2334.0000;1899.8300
2335.0000;1917.2000
2336.0000;1893.2110
2337.0000;1855.8730
2338.0000;1848.6710
2339.0000;1865.6700
2340.0000;1884.0600
2341.0000;1898.2010
2342.0000;1899.0420
2343.0000;1884.5390
2344.0000;1873.2100
2345.0000;1872.8450
2346.0000;1875.0390
2347.0000;1876.1600
2348.0000;1879.2190
2349.0000;1885.5700
2350.0000;1888.2000
2351.0000;1877.8200
2352.0000;1866.6980
2353.0000;1874.8710
2354.0000;1889.9470
2355.0000;1885.7910
2356.0000;1867.1370
2357.0000;1859.6280
2358.0000;1866.8990
2359.0000;1874.1790
2360.0000;1877.2940
2361.0000;1876.7040
2362.0000;1871.6370
2363.0000;1869.0160
2364.0000;1874.6440
2365.0000;1881.5010
2366.0000;1883.1620
2367.0000;1881.7470
2368.0000;1881.1950
2369.0000;1879.8370
2370.0000;1877.1490
2371.0000;1873.8420
2372.0000;1871.3470
2373.0000;1869.6170
2374.0000;1863.6530
2375.0000;1855.3190
2376.0000;1857.1170
2377.0000;1872.9350
2378.0000;1885.3000
2379.0000;1883.2970
2380.0000;1877.7310
2381.0000;1877.4920
2382.0000;1879.0660
2383.0000;1883.1290
2384.0000;1884.3330
2385.0000;1872.1500
2386.0000;1860.2020
2387.0000;1873.7830
2388.0000;1902.3390
2389.0000;1911.0630
2390.0000;1896.3860
2391.0000;1884.6250
2392.0000;1881.2290
2393.0000;1880.1080
2394.0000;1880.4080
2395.0000;1875.8930
2396.0000;1861.9780
2397.0000;1855.7440
2398.0000;1870.4190
2399.0000;1888.0780
2400.0000;1890.6040
2401.0000;1884.0220
2402.0000;1879.6470
2403.0000;1873.9030
2404.0000;1861.9010
2405.0000;1853.6220
2406.0000;1866.7500
2407.0000;1895.8010
2408.0000;1907.6590
2409.0000;1895.9610
2410.0000;1881.3860
2411.0000;1870.9990
2412.0000;1862.7610
2413.0000;1857.9500
2414.0000;1859.8580
2415.0000;1869.3090
2416.0000;1878.1830
2417.0000;1878.1420
2418.0000;1873.4000
2419.0000;1869.1540
2420.0000;1868.5240
2421.0000;1877.8010
2422.0000;1891.1660
2423.0000;1898.3250
2424.0000;1897.8930
2425.0000;1896.7670
2426.0000;1895.2630
2427.0000;1897.8620
2428.0000;1903.3130
2429.0000;1898.5510
2430.0000;1881.5130
2431.0000;1872.2600
2432.0000;1881.4970
2433.0000;1892.8710
2434.0000;1895.0690
2435.0000;1890.3300
2436.0000;1879.3930
2437.0000;1867.9900
2438.0000;1863.2570
2439.0000;1865.4540
2440.0000;1868.6930
2441.0000;1875.4530
2442.0000;1884.4900
2443.0000;1894.2790
2444.0000;1906.7200
2445.0000;1914.6380
2446.0000;1905.8450
2447.0000;1882.3610
2448.0000;1866.0820
2449.0000;1865.9090
2450.0000;1869.8420
2451.0000;1873.7320
2452.0000;1875.4050
2453.0000;1872.0250
2454.0000;1865.5050
2455.0000;1856.1340
2456.0000;1853.8160
2457.0000;1868.5900
2458.0000;1881.2000
2459.0000;1865.7260
2460.0000;1842.9860
2461.0000;1842.3140
2462.0000;1854.0530
2463.0000;1856.3720
2464.0000;1852.7190
2465.0000;1851.4080
2466.0000;1850.7100
2467.0000;1843.4380
2468.0000;1832.5920
2469.0000;1829.5210
2470.0000;1836.9680
2471.0000;1840.1220
2472.0000;1834.7970
2473.0000;1836.3800
2474.0000;1850.1450
2475.0000;1859.6750
2476.0000;1854.1200
2477.0000;1847.4350
2478.0000;1852.2200
2479.0000;1854.5240
2480.0000;1842.2490
2481.0000;1829.5360
2482.0000;1830.5760
2483.0000;1841.7140
2484.0000;1854.1930
2485.0000;1864.0180
2486.0000;1865.2160
2487.0000;1859.2390
2488.0000;1858.8030
2489.0000;1862.4900
2490.0000;1864.7420
2491.0000;1864.2710
2492.0000;1861.1660
2493.0000;1855.7470
2494.0000;1849.2050
2495.0000;1843.9650
2496.0000;1846.2250
2497.0000;1857.8370
2498.0000;1866.6840
2499.0000;1865.4190
2500.0000;1860.4680
2501.0000;1856.1540
2502.0000;1854.5660
2503.0000;1859.3170
2504.0000;1863.3600
2505.0000;1858.1260
2506.0000;1852.0540
2507.0000;1854.6310
2508.0000;1861.7120
2509.0000;1867.7770
2510.0000;1870.1330
2511.0000;1866.9080
2512.0000;1859.4790
2513.0000;1854.1840
2514.0000;1852.1950
2515.0000;1850.6070
2516.0000;1851.4360
2517.0000;1857.8450
2518.0000;1867.7890
2519.0000;1872.4610
2520.0000;1868.6540
2521.0000;1862.1230
2522.0000;1855.6700
2523.0000;1849.5470
2524.0000;1845.2520
2525.0000;1838.8530
2526.0000;1828.8090
2527.0000;1825.4580
2528.0000;1834.8770
2529.0000;1844.6860
2530.0000;1844.2060
2531.0000;1839.5300
2532.0000;1837.0670
2533.0000;1834.3150
2534.0000;1830.1570
2535.0000;1826.7160
2536.0000;1824.4000
2537.0000;1823.3360
2538.0000;1820.4840
2539.0000;1818.3450
2540.0000;1818.3470
2541.0000;1820.9390
2542.0000;1824.8150
2543.0000;1828.8010
2544.0000;1831.7400
2545.0000;1832.5640
2546.0000;1834.1890
2547.0000;1834.4660
2548.0000;1826.6540
2549.0000;1811.9120
2550.0000;1802.3450
2551.0000;1802.8480
2552.0000;1808.4810
2553.0000;1817.2710
2554.0000;1824.5890
2555.0000;1827.2180
2556.0000;1832.3660
2557.0000;1843.7040
2558.0000;1841.3650
2559.0000;1815.3090
2560.0000;1797.3640
2561.0000;1812.4610
2562.0000;1833.7720
2563.0000;1836.6460
2564.0000;1831.0820
2565.0000;1824.9970
2566.0000;1818.9070
2567.0000;1817.5260
2568.0000;1817.2470
2569.0000;1810.5050
2570.0000;1803.5550
2571.0000;1801.9310
2572.0000;1804.9050
2573.0000;1807.5050
2574.0000;1809.7280
2575.0000;1810.7950
2576.0000;1810.2610
2577.0000;1810.2200
2578.0000;1808.6550
2579.0000;1800.6090
2580.0000;1790.1310
2581.0000;1788.1150
2582.0000;1796.4990
2583.0000;1808.7620
2584.0000;1819.4000
2585.0000;1817.1120
2586.0000;1801.9080
2587.0000;1799.9330
2588.0000;1816.5910
2589.0000;1830.4860
2590.0000;1833.8950
2591.0000;1835.1690
2592.0000;1835.7010
2593.0000;1831.7460
2594.0000;1823.3640
2595.0000;1816.5860
2596.0000;1815.4450
2597.0000;1813.5040
2598.0000;1807.1040
2599.0000;1802.7500
2600.0000;1803.5390
2601.0000;1805.1830
2602.0000;1802.9120
2603.0000;1803.1660
2604.0000;1810.6430
2605.0000;1817.1160
2606.0000;1815.0800
2607.0000;1810.5210
2608.0000;1811.4070
2609.0000;1812.7930
2610.0000;1810.8150
2611.0000;1806.5030
2612.0000;1798.0010
2613.0000;1794.6570
2614.0000;1807.9730
2615.0000;1825.1400
2616.0000;1825.3130
2617.0000;1816.8360
2618.0000;1821.0680
2619.0000;1827.1970
2620.0000;1818.0540
2621.0000;1802.0930
2622.0000;1796.5790
2623.0000;1802.0470
2624.0000;1809.8210
2625.0000;1817.4530
2626.0000;1818.3310
2627.0000;1813.5920
2628.0000;1813.6790
2629.0000;1818.0070
2630.0000;1823.4470
2631.0000;1825.3950
2632.0000;1812.8870
2633.0000;1790.4370
2634.0000;1783.5000
2635.0000;1794.6700
2636.0000;1800.8480
2637.0000;1799.1100
2638.0000;1801.1360
2639.0000;1807.4640
2640.0000;1812.5360
2641.0000;1813.8420
2642.0000;1812.8860
2643.0000;1809.8830
2644.0000;1806.8310
2645.0000;1805.1550
2646.0000;1805.7440
2647.0000;1808.8470
2648.0000;1811.6870
2649.0000;1812.7080
2650.0000;1815.2350
2651.0000;1819.6550
2652.0000;1815.9710
2653.0000;1801.0200
2654.0000;1793.3390
2655.0000;1801.7630
2656.0000;1806.2780
2657.0000;1797.1510
2658.0000;1792.6710
2659.0000;1802.0660
2660.0000;1814.0080
2661.0000;1821.1520
2662.0000;1817.7150
2663.0000;1800.4080
2664.0000;1784.8110
2665.0000;1784.5160
2666.0000;1786.1890
2667.0000;1779.7270
2668.0000;1777.3500
2669.0000;1785.0730
2670.0000;1793.4980
2671.0000;1795.3150
2672.0000;1793.2330
2673.0000;1789.7640
2674.0000;1787.6670
2675.0000;1791.0830
2676.0000;1793.9890
2677.0000;1790.8660
2678.0000;1788.0730
2679.0000;1791.4820
2680.0000;1794.0630
2681.0000;1789.1950
2682.0000;1784.2030
2683.0000;1785.8260
2684.0000;1788.1720
2685.0000;1785.5370
2686.0000;1780.5720
2687.0000;1775.4480
2688.0000;1771.1320
2689.0000;1766.9850
2690.0000;1767.1800
2691.0000;1774.3010
2692.0000;1781.1870
2693.0000;1778.8340
2694.0000;1773.0670
2695.0000;1771.5760
2696.0000;1771.1220
2697.0000;1768.7850
2698.0000;1765.8260
2699.0000;1761.5670
2700.0000;1759.3090
2701.0000;1759.6610
2702.0000;1765.1990
2703.0000;1778.3120
2704.0000;1788.1040
2705.0000;1784.0110
2706.0000;1772.0280
2707.0000;1765.5980
2708.0000;1759.3280
2709.0000;1744.2840
2710.0000;1736.3720
2711.0000;1747.0230
2712.0000;1766.3610
2713.0000;1779.6470
2714.0000;1781.3220
2715.0000;1767.0090
2716.0000;1751.2900
2717.0000;1758.1580
2718.0000;1771.3070
2719.0000;1769.2390
2720.0000;1760.6560
2721.0000;1754.4520
2722.0000;1751.5550
2723.0000;1752.9810
2724.0000;1757.6880
2725.0000;1761.7270
2726.0000;1763.4130
2727.0000;1760.9730
2728.0000;1757.7270
2729.0000;1758.1090
2730.0000;1762.2550
2731.0000;1770.4800
2732.0000;1777.5640
2733.0000;1778.9660
2734.0000;1774.0370
2735.0000;1765.3400
2736.0000;1756.0000
2737.0000;1749.3190
2738.0000;1749.2310
2739.0000;1757.1760
2740.0000;1762.5130
2741.0000;1749.8950
2742.0000;1739.2580
2743.0000;1749.2450
2744.0000;1765.1130
2745.0000;1772.1600
2746.0000;1769.3400
2747.0000;1754.7350
2748.0000;1743.6010
2749.0000;1751.8010
2750.0000;1761.8880
2751.0000;1756.3370
2752.0000;1750.0180
2753.0000;1754.0430
2754.0000;1759.6080
2755.0000;1760.6020
2756.0000;1759.8890
2757.0000;1759.0440
2758.0000;1760.5830
2759.0000;1766.5870
2760.0000;1773.5670
2761.0000;1778.2530
2762.0000;1782.8720
2763.0000;1788.8740
2764.0000;1788.9020
2765.0000;1779.8510
2766.0000;1771.6500
2767.0000;1771.8910
2768.0000;1765.9100
2769.0000;1747.6370
2770.0000;1731.1010
2771.0000;1725.2440
2772.0000;1730.3570
2773.0000;1744.8820
2774.0000;1753.7330
2775.0000;1747.7450
2776.0000;1744.3900
2777.0000;1750.2560
2778.0000;1757.7880
2779.0000;1763.7600
2780.0000;1764.7940
2781.0000;1759.6950
2782.0000;1755.2000
2783.0000;1754.0970
2784.0000;1752.9770
2785.0000;1750.5620
2786.0000;1740.9600
2787.0000;1726.8920
2788.0000;1722.2890
2789.0000;1730.9610
2790.0000;1738.3790
2791.0000;1741.9850
2792.0000;1749.3920
2793.0000;1756.5730
2794.0000;1751.5100
2795.0000;1736.9300
2796.0000;1730.7230
2797.0000;1735.8800
2798.0000;1743.8440
2799.0000;1751.3790
2800.0000;1751.0050
2801.0000;1746.0640
2802.0000;1752.0290
2803.0000;1763.0840
2804.0000;1765.0590
2805.0000;1757.5540
2806.0000;1747.0170
2807.0000;1736.3890
2808.0000;1728.5900
2809.0000;1727.7960
2810.0000;1730.7360
2811.0000;1740.0820
2812.0000;1757.1300
2813.0000;1770.0910
2814.0000;1766.9060
2815.0000;1755.0650
2816.0000;1751.9590
2817.0000;1752.7700
2818.0000;1753.2670
2819.0000;1754.5530
2820.0000;1755.9290
2821.0000;1755.0690
2822.0000;1749.5680
2823.0000;1747.1900
2824.0000;1754.2530
2825.0000;1759.3010
2826.0000;1754.0040
2827.0000;1748.5570
2828.0000;1749.4430
2829.0000;1749.7260
2830.0000;1746.2620
2831.0000;1744.4030
2832.0000;1746.6280
2833.0000;1754.2290
2834.0000;1766.0500
2835.0000;1774.4230
2836.0000;1774.8980
2837.0000;1771.0820
2838.0000;1764.7520
2839.0000;1759.2460
2840.0000;1756.7900
2841.0000;1756.6380
2842.0000;1757.3490
2843.0000;1749.3480
2844.0000;1737.2930
2845.0000;1739.6830
2846.0000;1753.3080
2847.0000;1754.7980
2848.0000;1748.4100
2849.0000;1754.9050
2850.0000;1766.0600
2851.0000;1765.2170
2852.0000;1755.7080
2853.0000;1749.4020
2854.0000;1744.5960
2855.0000;1736.3340
2856.0000;1732.6000
2857.0000;1739.5210
2858.0000;1748.4800
2859.0000;1747.3930
2860.0000;1740.9280
2861.0000;1733.1190
2862.0000;1732.3630
2863.0000;1745.8700
2864.0000;1757.2940
2865.0000;1752.7970
2866.0000;1748.7690
2867.0000;1755.4420
2868.0000;1750.6220
2869.0000;1726.6680
2870.0000;1709.6630
2871.0000;1713.0760
2872.0000;1722.4930
2873.0000;1732.5590
2874.0000;1738.8300
2875.0000;1738.7290
2876.0000;1739.5610
2877.0000;1740.7330
2878.0000;1736.9570
2879.0000;1729.5250
2880.0000;1723.5820
2881.0000;1722.1040
2882.0000;1724.4710
2883.0000;1730.7130
2884.0000;1739.2210
2885.0000;1744.3590
2886.0000;1739.9970
2887.0000;1730.7350
2888.0000;1728.0360
2889.0000;1728.7010
2890.0000;1726.1350
2891.0000;1728.2510
2892.0000;1740.7350
2893.0000;1751.3540
2894.0000;1751.0520
2895.0000;1742.3030
2896.0000;1729.0350
2897.0000;1722.7920
2898.0000;1731.0610
2899.0000;1743.4810
2900.0000;1753.3440
2901.0000;1750.4010
2902.0000;1733.8450
2903.0000;1733.4280
2904.0000;1752.7090
2905.0000;1761.7460
2906.0000;1754.1050
2907.0000;1734.2520
2908.0000;1714.8230
2909.0000;1729.1300
2910.0000;1762.0410
2911.0000;1760.3900
2912.0000;1736.4910
2913.0000;1728.5580
2914.0000;1729.3920
2915.0000;1724.9310
2916.0000;1723.4930
2917.0000;1729.3040
2918.0000;1734.6010
2919.0000;1729.6970
2920.0000;1729.2040
2921.0000;1744.1840
2922.0000;1755.5440
2923.0000;1751.7100
2924.0000;1744.6620
2925.0000;1741.0560
2926.0000;1737.4300
2927.0000;1734.4080
2928.0000;1732.3130
2929.0000;1732.3080
2930.0000;1736.4810
2931.0000;1742.5580
2932.0000;1741.3440
2933.0000;1734.4800
2934.0000;1731.4230
2935.0000;1734.6520
2936.0000;1746.7840
2937.0000;1758.4250
2938.0000;1754.3640
2939.0000;1742.2610
2940.0000;1736.6530
2941.0000;1734.5690
2942.0000;1733.5030
2943.0000;1734.1050
2944.0000;1734.9720
2945.0000;1733.6800
2946.0000;1728.7570
2947.0000;1723.9510
2948.0000;1721.8730
2949.0000;1725.5050
2950.0000;1734.1650
2951.0000;1736.2620
2952.0000;1731.0860
2953.0000;1733.4430
2954.0000;1740.0400
2955.0000;1733.7830
2956.0000;1721.0390
2957.0000;1719.2450
2958.0000;1726.9080
2959.0000;1736.4350
2960.0000;1740.9210
2961.0000;1730.0310
2962.0000;1718.0530
2963.0000;1722.8380
2964.0000;1727.0620
2965.0000;1717.1590
2966.0000;1713.8440
2967.0000;1726.9370
2968.0000;1733.9110
2969.0000;1725.8590
2970.0000;1720.9040
2971.0000;1723.1900
2972.0000;1721.5890
2973.0000;1715.6970
2974.0000;1708.4170
2975.0000;1705.3140
2976.0000;1717.7880
2977.0000;1733.2130
2978.0000;1724.6800
2979.0000;1707.8330
2980.0000;1709.0770
2981.0000;1722.5370
2982.0000;1742.1520
2983.0000;1750.8890
2984.0000;1735.0050
2985.0000;1722.4090
2986.0000;1731.1950
2987.0000;1740.8590
2988.0000;1742.8760
2989.0000;1734.3790
2990.0000;1717.8690
2991.0000;1711.4820
2992.0000;1717.0900
2993.0000;1718.3760
2994.0000;1717.0150
2995.0000;1720.0490
2996.0000;1722.8150
2997.0000;1715.6900
2998.0000;1711.3030
2999.0000;1726.3020
3000.0000;1738.8100
3001.0000;1729.3170
3002.0000;1713.9910
3003.0000;1705.1300
3004.0000;1702.1440
3005.0000;1705.6100
3006.0000;1704.7520
3007.0000;1697.4270
3008.0000;1691.8010
3009.0000;1691.5590
3010.0000;1698.6250
3011.0000;1709.1050
3012.0000;1710.8270
3013.0000;1708.9350
3014.0000;1718.1270
3015.0000;1728.1830
3016.0000;1730.0460
3017.0000;1726.8510
3018.0000;1723.7390
3019.0000;1719.3320
3020.0000;1714.7170
3021.0000;1709.8350
3022.0000;1705.6800
3023.0000;1702.6380
3024.0000;1703.8990
3025.0000;1720.4370
3026.0000;1742.3010
3027.0000;1739.6050
3028.0000;1717.2520
3029.0000;1704.1710
3030.0000;1701.1370
3031.0000;1704.4300
3032.0000;1714.2950
3033.0000;1726.7360
3034.0000;1722.5830
3035.0000;1690.9910
3036.0000;1678.4850
3037.0000;1705.4050
3038.0000;1715.0860
3039.0000;1695.5860
3040.0000;1690.0190
3041.0000;1699.8570
3042.0000;1697.2180
3043.0000;1687.7720
3044.0000;1690.1770
3045.0000;1697.2280
3046.0000;1694.3230
3047.0000;1692.3390
3048.0000;1701.8040
3049.0000;1709.4720
3050.0000;1707.1040
3051.0000;1696.0890
3052.0000;1680.2560
3053.0000;1681.1040
3054.0000;1700.7350
3055.0000;1710.3290
3056.0000;1704.6810
3057.0000;1694.4720
3058.0000;1685.7110
3059.0000;1687.9010
3060.0000;1699.3760
3061.0000;1713.6790
3062.0000;1719.4790
3063.0000;1707.1020
3064.0000;1692.2860
3065.0000;1688.0990
3066.0000;1690.3070
3067.0000;1697.2500
3068.0000;1698.9560
3069.0000;1696.5970
3070.0000;1708.7280
3071.0000;1727.7240
3072.0000;1737.0770
3073.0000;1731.4000
3074.0000;1715.9510
3075.0000;1696.0320
3076.0000;1682.7320
3077.0000;1677.7080
3078.0000;1679.7040
3079.0000;1686.7560
3080.0000;1694.8510
3081.0000;1702.8460
3082.0000;1707.1630
3083.0000;1704.1930
3084.0000;1694.8820
3085.0000;1685.2820
3086.0000;1684.0740
3087.0000;1702.3770
3088.0000;1719.9540
3089.0000;1710.8740
3090.0000;1696.4410
3091.0000;1694.4510
3092.0000;1696.1710
3093.0000;1698.4170
3094.0000;1694.0920
3095.0000;1685.1790
3096.0000;1686.7400
3097.0000;1699.1600
3098.0000;1712.0680
3099.0000;1720.8990
3100.0000;1724.7910
3101.0000;1721.4580
3102.0000;1715.8410
3103.0000;1705.7880
3104.0000;1693.0810
3105.0000;1688.3410
3106.0000;1695.7600
3107.0000;1703.3530
3108.0000;1705.4740
3109.0000;1696.9730
3110.0000;1687.2320
3111.0000;1701.1560
3112.0000;1721.4170
3113.0000;1719.8440
3114.0000;1710.8180
3115.0000;1710.2940
3116.0000;1706.6520
3117.0000;1697.0870
3118.0000;1696.7720
3119.0000;1706.1040
3120.0000;1695.5960
3121.0000;1671.5980
3122.0000;1670.9900
3123.0000;1686.3320
3124.0000;1690.5620
3125.0000;1691.5530
3126.0000;1697.5750
3127.0000;1696.1940
3128.0000;1682.0800
3129.0000;1668.1500
3130.0000;1662.7530
3131.0000;1659.9430
3132.0000;1662.2350
3133.0000;1674.3390
3134.0000;1688.4590
3135.0000;1689.6290
3136.0000;1680.2310
3137.0000;1668.7260
3138.0000;1666.6610
3139.0000;1682.9780
3140.0000;1690.0150
3141.0000;1675.7560
3142.0000;1671.2740
3143.0000;1680.5390
3144.0000;1681.5240
3145.0000;1674.3050
3146.0000;1666.3970
3147.0000;1660.2660
3148.0000;1657.6450
3149.0000;1656.1650
3150.0000;1651.4410
3151.0000;1652.0580
3152.0000;1660.5410
3153.0000;1669.4100
3154.0000;1674.0120
3155.0000;1670.6950
3156.0000;1662.6080
3157.0000;1661.6050
3158.0000;1665.0930
3159.0000;1666.0400
3160.0000;1670.3940
3161.0000;1680.9810
3162.0000;1685.3140
3163.0000;1678.6380
3164.0000;1675.2210
3165.0000;1675.7910
3166.0000;1667.0660
3167.0000;1654.1280
3168.0000;1645.4090
3169.0000;1648.4690
3170.0000;1667.1430
3171.0000;1681.2630
3172.0000;1674.1020
3173.0000;1667.6500
3174.0000;1669.8760
3175.0000;1669.6200
3176.0000;1666.1440
3177.0000;1663.7950
3178.0000;1660.1180
3179.0000;1646.8100
3180.0000;1639.6070
3181.0000;1651.3990
3182.0000;1663.1670
3183.0000;1661.9590
3184.0000;1674.1080
3185.0000;1697.3540
3186.0000;1690.9540
3187.0000;1661.3260
3188.0000;1651.0470
3189.0000;1656.7660
3190.0000;1663.4670
3191.0000;1673.0930
3192.0000;1681.6230
3193.0000;1685.4270
3194.0000;1682.5570
3195.0000;1678.5500
3196.0000;1673.3960
3197.0000;1659.7140
3198.0000;1647.7630
3199.0000;1651.8360
3200.0000;1664.7190
3201.0000;1672.2410
3202.0000;1673.4480
3203.0000;1667.1120
3204.0000;1661.5510
3205.0000;1658.2860
3206.0000;1643.6240
3207.0000;1628.2150
3208.0000;1631.8390
3209.0000;1645.3230
3210.0000;1648.5380
3211.0000;1650.0280
3212.0000;1653.9510
3213.0000;1655.3150
3214.0000;1652.6840
3215.0000;1646.5160
3216.0000;1642.1820
3217.0000;1652.8240
3218.0000;1663.6840
3219.0000;1647.9580
3220.0000;1634.8980
3221.0000;1648.2440
3222.0000;1666.2370
3223.0000;1677.3480
3224.0000;1679.2940
3225.0000;1672.4670
3226.0000;1672.1160
3227.0000;1672.5230
3228.0000;1663.8200
3229.0000;1651.9300
3230.0000;1641.5840
3231.0000;1639.3950
3232.0000;1646.7470
3233.0000;1647.5100
3234.0000;1642.1300
3235.0000;1647.1430
3236.0000;1654.6330
3237.0000;1649.4150
3238.0000;1640.3150
3239.0000;1636.7720
3240.0000;1636.8950
3241.0000;1639.0650
3242.0000;1630.5930
3243.0000;1616.0930
3244.0000;1617.7710
3245.0000;1630.5700
3246.0000;1636.6270
3247.0000;1638.5510
3248.0000;1638.1890
3249.0000;1636.3420
3250.0000;1634.7690
3251.0000;1633.6990
3252.0000;1634.6960
3253.0000;1640.6050
3254.0000;1646.3430
3255.0000;1645.5680
3256.0000;1639.2860
3257.0000;1630.8340
3258.0000;1627.3510
3259.0000;1632.8070
3260.0000;1644.6470
3261.0000;1657.9400
3262.0000;1665.8670
3263.0000;1665.4340
3264.0000;1661.4100
3265.0000;1651.5300
3266.0000;1638.9860
3267.0000;1638.7610
3268.0000;1651.0770
3269.0000;1647.0470
3270.0000;1632.2820
3271.0000;1632.4430
3272.0000;1638.1210
3273.0000;1635.8590
3274.0000;1633.6710
3275.0000;1635.0050
3276.0000;1640.1720
3277.0000;1645.3200
3278.0000;1639.0620
3279.0000;1625.0000
3280.0000;1612.3300
3281.0000;1609.4130
3282.0000;1620.5770
3283.0000;1634.0620
3284.0000;1640.1400
3285.0000;1630.3680
3286.0000;1612.3980
3287.0000;1615.7510
3288.0000;1628.7000
3289.0000;1627.8440
3290.0000;1626.2920
3291.0000;1630.9150
3292.0000;1640.4930
3293.0000;1649.5700
3294.0000;1643.2510
3295.0000;1624.9170
3296.0000;1608.4840
3297.0000;1600.7030
3298.0000;1605.1900
3299.0000;1611.2320
3300.0000;1613.2150
3301.0000;1627.1870
3302.0000;1642.6990
3303.0000;1631.8960
3304.0000;1610.5960
3305.0000;1608.8290
3306.0000;1617.3490
3307.0000;1628.9550
3308.0000;1631.3140
3309.0000;1622.5240
3310.0000;1619.5670
3311.0000;1623.2000
3312.0000;1630.7330
3313.0000;1637.6230
3314.0000;1639.4140
3315.0000;1629.5120
3316.0000;1609.7300
3317.0000;1599.3220
3318.0000;1600.3080
3319.0000;1595.2320
3320.0000;1597.7930
3321.0000;1617.4810
3322.0000;1628.9960
3323.0000;1619.4250
3324.0000;1621.4030
3325.0000;1632.9430
3326.0000;1625.5270
3327.0000;1614.2690
3328.0000;1626.4380
3329.0000;1631.2060
3330.0000;1612.0140
3331.0000;1610.9700
3332.0000;1629.2790
3333.0000;1620.5930
3334.0000;1600.1100
3335.0000;1605.6850
3336.0000;1612.6010
3337.0000;1602.5260
3338.0000;1596.2180
3339.0000;1600.0370
3340.0000;1606.3900
3341.0000;1612.5200
3342.0000;1617.2660
3343.0000;1613.2450
3344.0000;1598.0880
3345.0000;1584.2620
3346.0000;1580.7400
3347.0000;1588.5100
3348.0000;1601.5930
3349.0000;1599.1970
3350.0000;1596.2390
3351.0000;1609.6560
3352.0000;1616.9730
3353.0000;1609.0390
3354.0000;1594.4670
3355.0000;1585.0710
3356.0000;1601.5350
3357.0000;1622.9420
3358.0000;1621.5130
3359.0000;1616.7100
3360.0000;1617.0930
3361.0000;1614.9800
3362.0000;1612.2470
3363.0000;1615.1470
3364.0000;1618.4770
3365.0000;1615.4180
3366.0000;1611.8530
3367.0000;1610.9810
3368.0000;1613.8120
3369.0000;1615.3980
3370.0000;1598.9120
3371.0000;1589.3730
3372.0000;1614.8280
3373.0000;1632.7210
3374.0000;1623.2240
3375.0000;1613.9880
3376.0000;1607.5000
3377.0000;1597.6880
3378.0000;1590.1160
3379.0000;1586.9860
3380.0000;1593.8360
3381.0000;1608.1100
3382.0000;1611.3050
3383.0000;1604.9570
3384.0000;1609.7510
3385.0000;1616.2460
3386.0000;1616.3140
3387.0000;1611.5070
3388.0000;1604.3860
3389.0000;1603.2040
3390.0000;1607.4640
3391.0000;1611.7320
3392.0000;1607.2930
3393.0000;1587.8870
3394.0000;1578.1200
3395.0000;1585.8160
3396.0000;1587.0390
3397.0000;1587.7670
3398.0000;1603.7790
3399.0000;1614.9900
3400.0000;1606.8810
3401.0000;1610.5620
3402.0000;1627.5320
3403.0000;1624.6820
3404.0000;1608.6610
3405.0000;1602.9400
3406.0000;1594.7860
3407.0000;1580.3650
3408.0000;1586.4900
3409.0000;1610.4020
3410.0000;1615.2480
3411.0000;1609.4240
3412.0000;1611.8060
3413.0000;1614.2020
3414.0000;1613.6220
3415.0000;1607.4780
3416.0000;1597.1200
3417.0000;1586.1240
3418.0000;1579.7900
3419.0000;1580.1350
3420.0000;1578.4020
3421.0000;1573.3200
3422.0000;1582.2410
3423.0000;1596.9080
3424.0000;1593.5860
3425.0000;1596.9610
3426.0000;1624.4700
3427.0000;1637.3750
3428.0000;1626.1200
3429.0000;1618.5820
3430.0000;1611.3460
3431.0000;1598.9070
3432.0000;1592.7390
3433.0000;1597.6620
3434.0000;1602.4240
3435.0000;1604.1770
3436.0000;1603.7990
3437.0000;1601.1240
3438.0000;1597.7720
3439.0000;1598.4190
3440.0000;1602.2480
3441.0000;1594.1300
3442.0000;1581.5170
3443.0000;1581.1780
3444.0000;1585.2600
3445.0000;1585.8720
3446.0000;1574.3870
3447.0000;1558.8410
3448.0000;1564.5780
3449.0000;1587.2050
3450.0000;1612.5160
3451.0000;1624.2140
3452.0000;1613.2100
3453.0000;1597.4460
3454.0000;1585.4000
3455.0000;1586.3960
3456.0000;1589.7630
3457.0000;1584.2300
3458.0000;1588.4570
3459.0000;1601.3290
3460.0000;1602.7000
3461.0000;1593.8920
3462.0000;1582.3470
3463.0000;1571.8910
3464.0000;1567.3360
3465.0000;1568.5890
3466.0000;1576.0000
3467.0000;1584.9900
3468.0000;1594.1740
3469.0000;1601.1880
3470.0000;1592.3940
3471.0000;1574.5250
3472.0000;1581.9450
3473.0000;1597.4050
3474.0000;1593.4000
3475.0000;1587.6350
3476.0000;1585.5950
3477.0000;1572.6580
3478.0000;1558.0010
3479.0000;1555.9580
3480.0000;1561.2900
3481.0000;1566.1820
3482.0000;1562.8730
3483.0000;1554.5500
3484.0000;1558.7320
3485.0000;1562.7620
3486.0000;1552.6790
3487.0000;1546.7160
3488.0000;1550.3490
3489.0000;1549.3420
3490.0000;1554.1340
3491.0000;1580.5740
3492.0000;1595.2390
3493.0000;1583.1570
3494.0000;1582.0290
3495.0000;1589.0000
3496.0000;1583.4950
3497.0000;1575.0380
3498.0000;1571.3560
3499.0000;1576.5440
3500.0000;1583.8220
3501.0000;1566.0770
3502.0000;1549.0220
3503.0000;1561.2950
3504.0000;1574.3460
3505.0000;1574.3100
3506.0000;1561.9120
3507.0000;1551.3230
3508.0000;1566.4650
3509.0000;1574.0660
3510.0000;1559.8910
3511.0000;1564.4500
3512.0000;1579.0670
3513.0000;1570.8480
3514.0000;1560.9770
3515.0000;1564.9330
3516.0000;1569.8860
3517.0000;1573.5490
3518.0000;1581.1540
3519.0000;1576.3460
3520.0000;1549.7490
3521.0000;1538.5440
3522.0000;1553.5290
3523.0000;1572.2520
3524.0000;1588.0590
3525.0000;1593.6670
3526.0000;1586.4880
3527.0000;1571.7230
3528.0000;1568.5760
3529.0000;1572.9810
3530.0000;1570.2790
3531.0000;1566.8460
3532.0000;1565.5320
3533.0000;1570.0820
3534.0000;1572.4370
3535.0000;1555.8620
3536.0000;1542.5630
3537.0000;1547.2070
3538.0000;1553.6420
3539.0000;1559.2000
3540.0000;1565.2240
3541.0000;1565.2540
3542.0000;1557.0540
3543.0000;1549.1590
3544.0000;1544.4120
3545.0000;1537.3580
3546.0000;1539.0030
3547.0000;1553.8020
3548.0000;1555.8140
3549.0000;1541.1050
3550.0000;1528.5980
3551.0000;1524.5970
3552.0000;1532.1750
3553.0000;1538.3760
3554.0000;1539.1710
3555.0000;1544.8770
3556.0000;1548.2480
3557.0000;1542.5440
3558.0000;1534.2070
3559.0000;1528.3890
3560.0000;1528.0760
3561.0000;1533.5360
3562.0000;1540.7430
3563.0000;1546.1260
3564.0000;1546.5800
3565.0000;1545.2160
3566.0000;1539.0080
3567.0000;1526.0490
3568.0000;1518.0900
3569.0000;1521.4290
3570.0000;1531.3250
3571.0000;1542.1820
3572.0000;1546.0520
3573.0000;1540.9320
3574.0000;1529.2140
3575.0000;1521.2140
3576.0000;1520.3400
3577.0000;1523.9330
3578.0000;1529.2420
3579.0000;1532.3800
3580.0000;1534.8410
3581.0000;1532.7790
3582.0000;1522.8500
3583.0000;1519.3980
3584.0000;1526.9580
3585.0000;1515.8180
3586.0000;1498.3080
3587.0000;1500.7910
3588.0000;1514.6880
3589.0000;1529.9750
3590.0000;1539.9700
3591.0000;1540.5930
3592.0000;1535.8050
3593.0000;1534.3780
3594.0000;1541.0330
3595.0000;1545.5980
3596.0000;1542.8530
3597.0000;1529.3340
3598.0000;1519.3630
3599.0000;1519.0700
3600.0000;1507.6470
3601.0000;1502.0570
3602.0000;1527.1490
3603.0000;1535.3490
3604.0000;1513.1460
3605.0000;1513.5110
3606.0000;1527.1050
3607.0000;1529.0340
3608.0000;1530.4370
3609.0000;1533.2250
3610.0000;1533.3910
3611.0000;1529.0090
3612.0000;1520.2050
3613.0000;1522.3620
3614.0000;1535.4740
3615.0000;1534.2650
3616.0000;1530.5210
3617.0000;1539.8590
3618.0000;1539.1980
3619.0000;1525.3640
3620.0000;1513.5250
3621.0000;1509.1070
3622.0000;1513.8220
3623.0000;1520.4350
3624.0000;1524.1560
3625.0000;1522.1520
3626.0000;1518.3130
3627.0000;1518.0050
3628.0000;1524.1770
3629.0000;1533.2000
3630.0000;1535.1970
3631.0000;1533.1250
3632.0000;1531.0350
3633.0000;1531.3660
3634.0000;1531.2280
3635.0000;1523.9840
3636.0000;1512.8030
3637.0000;1504.1900
3638.0000;1511.4530
3639.0000;1529.8050
3640.0000;1543.5430
3641.0000;1538.0970
3642.0000;1515.0810
3643.0000;1514.6280
3644.0000;1527.9300
3645.0000;1533.0660
3646.0000;1517.4270
3647.0000;1488.4240
3648.0000;1483.7930
3649.0000;1496.5540
3650.0000;1508.6930
3651.0000;1518.5210
3652.0000;1523.0630
3653.0000;1529.8760
3654.0000;1534.2500
3655.0000;1534.0800
3656.0000;1518.1010
3657.0000;1497.2160
3658.0000;1494.6150
3659.0000;1500.9780
3660.0000;1507.6620
3661.0000;1516.1860
3662.0000;1522.3640
3663.0000;1523.5490
3664.0000;1522.7620
3665.0000;1520.6660
3666.0000;1512.5880
3667.0000;1502.1520
3668.0000;1494.4220
3669.0000;1495.0580
3670.0000;1502.6210
3671.0000;1503.3460
3672.0000;1502.1360
3673.0000;1503.1010
3674.0000;1509.1010
3675.0000;1513.3070
3676.0000;1503.9670
3677.0000;1491.9510
3678.0000;1489.0850
3679.0000;1509.7250
3680.0000;1526.9420
3681.0000;1502.6120
3682.0000;1479.2560
3683.0000;1474.7350
3684.0000;1474.5040
3685.0000;1484.3330
3686.0000;1499.5430
3687.0000;1494.1230
3688.0000;1477.0690
3689.0000;1487.4390
3690.0000;1495.0810
3691.0000;1485.3840
3692.0000;1492.5000
3693.0000;1502.9030
3694.0000;1492.4670
3695.0000;1485.5530
3696.0000;1490.5250
3697.0000;1500.4380
3698.0000;1495.5740
3699.0000;1465.4800
3700.0000;1468.3160
3701.0000;1497.1560
3702.0000;1496.1840
3703.0000;1485.7840
3704.0000;1477.6510
3705.0000;1464.6180
3706.0000;1455.8630
3707.0000;1459.7530
3708.0000;1473.7470
3709.0000;1489.4700
3710.0000;1495.3170
3711.0000;1494.5770
3712.0000;1495.0160
3713.0000;1500.5660
3714.0000;1505.0430
3715.0000;1496.7550
3716.0000;1496.0000
3717.0000;1507.1180
3718.0000;1501.1090
3719.0000;1487.8480
3720.0000;1482.8170
3721.0000;1474.2500
3722.0000;1470.5420
3723.0000;1492.8360
3724.0000;1501.2280
3725.0000;1479.1290
3726.0000;1491.5010
3727.0000;1514.9340
3728.0000;1506.0330
3729.0000;1494.3770
3730.0000;1487.0940
3731.0000;1468.5010
3732.0000;1462.5530
3733.0000;1479.8080
3734.0000;1479.4720
3735.0000;1466.5440
3736.0000;1463.4860
3737.0000;1461.7450
3738.0000;1460.5210
3739.0000;1465.0520
3740.0000;1464.8620
3741.0000;1452.9630
3742.0000;1450.3620
3743.0000;1458.5980
3744.0000;1467.3070
3745.0000;1474.1040
3746.0000;1475.6450
3747.0000;1475.2960
3748.0000;1473.5370
3749.0000;1472.3420
3750.0000;1458.4260
3751.0000;1450.5210
3752.0000;1486.9040
3753.0000;1504.3540
3754.0000;1478.2250
3755.0000;1462.9180
3756.0000;1454.9980
3757.0000;1448.8560
3758.0000;1454.0740
3759.0000;1465.6550
3760.0000;1467.6770
3761.0000;1464.2910
3762.0000;1460.9900
3763.0000;1468.7350
3764.0000;1482.2090
3765.0000;1491.8790
3766.0000;1492.6810
3767.0000;1483.6470
3768.0000;1471.5430
3769.0000;1476.3820
3770.0000;1497.7820
3771.0000;1495.8450
3772.0000;1484.4310
3773.0000;1481.6850
3774.0000;1477.6050
3775.0000;1476.4000
3776.0000;1484.4120
3777.0000;1481.0950
3778.0000;1464.6040
3779.0000;1459.4580
3780.0000;1460.3590
3781.0000;1460.2160
3782.0000;1453.6610
3783.0000;1453.9150
3784.0000;1479.3580
3785.0000;1475.6860
3786.0000;1444.6740
3787.0000;1452.9550
3788.0000;1468.4290
3789.0000;1466.8000
3790.0000;1452.9810
3791.0000;1443.4940
3792.0000;1457.4450
3793.0000;1462.5450
3794.0000;1460.3510
3795.0000;1480.4150
3796.0000;1483.3010
3797.0000;1459.7180
3798.0000;1459.0810
3799.0000;1466.4540
3800.0000;1462.8030
3801.0000;1467.4090
3802.0000;1473.2630
3803.0000;1464.4410
3804.0000;1461.0620
3805.0000;1467.4460
3806.0000;1468.1930
3807.0000;1466.1740
3808.0000;1463.3360
3809.0000;1457.3520
3810.0000;1455.6440
3811.0000;1464.6080
3812.0000;1450.9810
3813.0000;1426.8460
3814.0000;1434.5150
3815.0000;1445.2320
3816.0000;1445.0830
3817.0000;1447.2570
3818.0000;1442.0160
3819.0000;1426.8190
3820.0000;1423.1760
3821.0000;1430.4220
3822.0000;1436.8640
3823.0000;1438.1500
3824.0000;1432.8080
3825.0000;1426.2340
3826.0000;1422.0650
3827.0000;1422.6140
3828.0000;1424.4470
3829.0000;1423.8340
3830.0000;1418.7910
3831.0000;1424.4860
3832.0000;1433.4170
3833.0000;1431.0530
3834.0000;1427.4050
3835.0000;1422.6460
3836.0000;1408.1640
3837.0000;1401.9760
3838.0000;1410.6860
3839.0000;1417.4900
3840.0000;1420.7770
3841.0000;1420.1150
3842.0000;1429.6670
3843.0000;1434.0230
3844.0000;1414.3390
3845.0000;1413.1760
3846.0000;1426.9660
3847.0000;1412.6070
3848.0000;1402.3820
3849.0000;1408.0380
3850.0000;1409.0370
3851.0000;1410.9270
3852.0000;1416.5980
3853.0000;1430.3130
3854.0000;1436.4160
3855.0000;1421.4850
3856.0000;1415.2190
3857.0000;1417.0750
3858.0000;1409.8250
3859.0000;1405.1510
3860.0000;1406.6000
3861.0000;1409.0390
3862.0000;1412.4580
3863.0000;1416.9320
3864.0000;1431.2760
3865.0000;1439.4960
3866.0000;1430.8240
3867.0000;1429.0490
3868.0000;1429.1630
3869.0000;1420.5370
3870.0000;1414.1370
3871.0000;1410.9660
3872.0000;1404.0170
3873.0000;1400.3720
3874.0000;1400.9970
3875.0000;1398.4190
3876.0000;1397.6300
3877.0000;1402.0360
3878.0000;1417.8260
3879.0000;1429.8090
3880.0000;1425.0450
3881.0000;1412.1260
3882.0000;1400.6540
3883.0000;1401.5990
3884.0000;1394.6700
3885.0000;1388.0650
3886.0000;1402.9720
3887.0000;1405.5260
3888.0000;1393.5790
3889.0000;1402.5920
3890.0000;1406.3140
3891.0000;1397.1860
3892.0000;1402.0780
3893.0000;1405.8250
3894.0000;1397.4220
3895.0000;1384.3020
3896.0000;1383.2740
3897.0000;1403.9420
3898.0000;1400.0260
3899.0000;1382.9620
3900.0000;1385.6680
3901.0000;1400.7230
3902.0000;1415.2200
3903.0000;1409.5590
3904.0000;1403.9200
3905.0000;1402.4780
3906.0000;1390.4660
3907.0000;1381.4000
3908.0000;1381.6960
3909.0000;1380.3900
3910.0000;1386.8410
3911.0000;1400.3280
3912.0000;1400.9210
3913.0000;1391.7090
3914.0000;1382.5690
3915.0000;1374.4640
3916.0000;1375.7850
3917.0000;1389.5520
3918.0000;1383.7650
3919.0000;1368.5820
3920.0000;1376.4250
3921.0000;1383.3430
3922.0000;1384.7000
3923.0000;1387.4370
3924.0000;1389.1070
3925.0000;1391.1200
3926.0000;1401.3420
3927.0000;1398.2000
3928.0000;1381.2250
3929.0000;1385.5390
3930.0000;1395.4350
3931.0000;1396.4580
3932.0000;1388.5260
3933.0000;1381.1720
3934.0000;1383.1970
3935.0000;1384.8890
3936.0000;1385.0820
3937.0000;1383.1900
3938.0000;1380.8680
3939.0000;1377.0410
3940.0000;1371.3180
3941.0000;1376.1690
3942.0000;1382.3160
3943.0000;1372.0290
3944.0000;1376.8560
3945.0000;1391.7860
3946.0000;1391.4220
3947.0000;1383.2960
3948.0000;1370.7160
3949.0000;1355.3400
3950.0000;1350.4640
3951.0000;1357.7280
3952.0000;1360.6480
3953.0000;1366.1110
3954.0000;1370.8210
3955.0000;1361.3220
3956.0000;1353.0900
3957.0000;1357.3100
3958.0000;1367.6220
3959.0000;1375.0210
3960.0000;1371.4170
3961.0000;1361.7080
3962.0000;1352.9190
3963.0000;1352.9900
3964.0000;1365.7560
3965.0000;1374.7270
3966.0000;1365.1240
3967.0000;1358.2000
3968.0000;1349.0460
3969.0000;1334.0390
3970.0000;1333.0800
3971.0000;1341.5380
3972.0000;1344.7260
3973.0000;1350.3690
3974.0000;1348.6620
3975.0000;1330.6150
3976.0000;1312.1190
3977.0000;1305.8420
3978.0000;1316.3570
3979.0000;1325.8760
3980.0000;1328.7910
3981.0000;1328.3170
3982.0000;1322.7060
3983.0000;1318.4990
3984.0000;1325.7220
3985.0000;1331.1760
3986.0000;1329.5870
3987.0000;1322.8290
3988.0000;1318.1640
3989.0000;1316.8500
3990.0000;1311.6660
3991.0000;1316.5940
3992.0000;1328.4020
3993.0000;1329.3430
3994.0000;1317.9640
3995.0000;1305.4840
3996.0000;1317.1650
3997.0000;1315.6260
3998.0000;1297.5810
3999.0000;1298.6840
4000.0000;1302.1270
4001.0000;1303.9390
4002.0000;1314.3770
4003.0000;1313.6540
4004.0000;1304.0240
4005.0000;1317.0140
4006.0000;1332.5520
4007.0000;1333.7230
4008.0000;1310.3210
4009.0000;1294.4840
4010.0000;1301.6460
4011.0000;1313.9650
4012.0000;1320.6480
4013.0000;1314.7790
4014.0000;1305.8160
4015.0000;1305.2720
4016.0000;1311.1850
4017.0000;1294.5740
4018.0000;1298.9290
4019.0000;1327.5670
4020.0000;1328.9160
4021.0000;1317.9040
4022.0000;1311.3680
4023.0000;1329.8240
4024.0000;1331.9380
4025.0000;1308.1840
4026.0000;1292.6010
4027.0000;1293.7360
4028.0000;1308.1500
4029.0000;1313.9980
4030.0000;1300.9000
4031.0000;1278.8050
4032.0000;1278.4030
4033.0000;1293.3730
4034.0000;1305.3750
4035.0000;1285.8060
4036.0000;1282.9860
4037.0000;1303.7520
4038.0000;1315.8200
4039.0000;1312.6130
4040.0000;1297.5800
4041.0000;1288.6670
4042.0000;1286.7830
4043.0000;1290.3500
4044.0000;1290.8160
4045.0000;1296.8110
4046.0000;1301.5420
4047.0000;1292.3720
4048.0000;1280.0520
4049.0000;1272.2490
4050.0000;1272.9560
4051.0000;1281.1190
4052.0000;1288.8600
4053.0000;1286.8760
4054.0000;1282.1800
4055.0000;1281.6230
4056.0000;1289.5490
4057.0000;1285.1550
4058.0000;1280.9000
4059.0000;1291.1050
4060.0000;1274.9710
4061.0000;1264.3100
4062.0000;1288.5650
4063.0000;1294.9580
4064.0000;1291.7990
4065.0000;1292.2270
4066.0000;1291.1680
4067.0000;1289.9070
4068.0000;1288.9710
4069.0000;1283.3480
4070.0000;1284.1090
4071.0000;1294.1570
4072.0000;1298.9800
4073.0000;1296.4350
4074.0000;1287.1990
4075.0000;1272.9850
4076.0000;1269.7520
4077.0000;1274.3440
4078.0000;1256.7630
4079.0000;1258.1850
4080.0000;1278.5450
4081.0000;1279.6920
4082.0000;1271.8620
4083.0000;1259.3720
4084.0000;1247.3580
4085.0000;1256.3150
4086.0000;1271.7430
4087.0000;1264.9450
4088.0000;1263.8240
4089.0000;1262.3120
4090.0000;1250.7600
4091.0000;1237.0290
4092.0000;1239.5140
4093.0000;1260.5520
4094.0000;1243.8930
4095.0000;1222.6240
4096.0000;1229.0780
4097.0000;1252.1140
4098.0000;1258.2430
4099.0000;1236.5820
4100.0000;1231.6760
4101.0000;1234.7510
4102.0000;1237.0070
4103.0000;1225.6920
4104.0000;1228.3720
4105.0000;1240.6690
4106.0000;1234.5600
4107.0000;1226.5530
4108.0000;1220.5430
4109.0000;1215.9880
4110.0000;1219.7030
4111.0000;1216.3870
4112.0000;1193.9580
4113.0000;1189.4710
4114.0000;1199.5090
4115.0000;1205.7580
4116.0000;1183.0820
4117.0000;1159.6410
4118.0000;1154.4000
4119.0000;1139.9940
4120.0000;1142.4590
4121.0000;1153.1980
4122.0000;1129.0430
4123.0000;1116.2310
4124.0000;1119.0300
4125.0000;1108.3920
4126.0000;1107.5250
4127.0000;1096.8210
4128.0000;1053.9600
4129.0000;1042.0600
4130.0000;1044.0730
4131.0000;1030.0780
4132.0000;1033.2510
4133.0000;1023.1770
4134.0000;990.1592
4135.0000;980.5831
4136.0000;974.2505
4137.0000;962.8146
4138.0000;955.0391
4139.0000;940.1534
4140.0000;918.0290
4141.0000;894.7013
4142.0000;872.8864
4143.0000;852.4879
4144.0000;830.6018
4145.0000;820.4979
4146.0000;812.4098
4147.0000;797.0462
4148.0000;790.8999
4149.0000;790.5646
4150.0000;785.2524
4151.0000;758.7521
4152.0000;738.4348
4153.0000;730.2501
4154.0000;714.2300
4155.0000;696.2867
4156.0000;683.2665
4157.0000;678.5970
4158.0000;669.8451
4159.0000;656.2441
4160.0000;640.8775
4161.0000;634.3123
4162.0000;617.7173
4163.0000;593.4318
4164.0000;599.5029
4165.0000;594.6647
4166.0000;579.9413
4167.0000;586.4674
4168.0000;579.7975
4169.0000;569.8709
4170.0000;573.7980
4171.0000;559.3469
4172.0000;550.4960
4173.0000;561.2811
4174.0000;560.7673
4175.0000;560.4639
4176.0000;561.9060
4177.0000;557.1824
4178.0000;546.6392
4179.0000;536.6525
4180.0000;534.5267
4181.0000;536.7696
4182.0000;535.5502
4183.0000;527.7392
4184.0000;534.6041
4185.0000;536.6458
4186.0000;529.1207
4187.0000;535.7391
4188.0000;544.6712
4189.0000;545.7652
4190.0000;535.1019
4191.0000;540.6072
4192.0000;547.8990
4193.0000;537.7575
4194.0000;529.6121
4195.0000;524.9725
4196.0000;524.7894
4197.0000;526.9694
4198.0000;532.6130
4199.0000;532.1039
4200.0000;515.2372
4201.0000;516.6591
4202.0000;526.3525
4203.0000;526.1694
4204.0000;530.5257
4205.0000;532.0459
4206.0000;529.3950
4207.0000;531.1663
4208.0000;528.4779
4209.0000;526.5179
4210.0000;535.0851
4211.0000;538.5344
4212.0000;538.3863
4213.0000;538.1279
4214.0000;531.2607
4215.0000;529.1259
4216.0000;530.7116
4217.0000;519.1309
4218.0000;518.6074
4219.0000;520.1824
4220.0000;505.8342
4221.0000;496.5046
4222.0000;501.8083
4223.0000;516.4548
4224.0000;514.4809
4225.0000;504.7054
4226.0000;500.6082
4227.0000;512.8395
4228.0000;516.3214
4229.0000;518.9147
4230.0000;530.7109
4231.0000;535.6441
4232.0000;527.7190
4233.0000;515.3545
4234.0000;520.3964
4235.0000;520.3472
4236.0000;462.9475
4237.0000;322.9429
4238.0000;169.9876
