Raman Shift ; Dark Subtracted #1
-2.0000;8466.8490
-1.0000;8130.9900
0.0000;7546.4540
1.0000;6674.6200
2.0000;5519.6040
3.0000;4178.5090
4.0000;2923.3320
5.0000;1844.0220
6.0000;1081.4150
7.0000;737.2321
8.0000;495.8368
9.0000;381.9614
10.0000;454.6024
11.0000;456.6201
12.0000;293.2170
13.0000;129.7439
14.0000;13.4766
15.0000;-19.7556
16.0000;10.3112
17.0000;39.1427
18.0000;37.0296
19.0000;35.4540
20.0000;34.7959
21.0000;35.8643
22.0000;37.1589
23.0000;36.4483
24.0000;32.0604
25.0000;26.1537
26.0000;20.2558
27.0000;15.3068
28.0000;12.4923
29.0000;11.7277
30.0000;12.9700
31.0000;16.2713
32.0000;19.1976
33.0000;19.6758
34.0000;18.7692
35.0000;17.5943
36.0000;17.6439
37.0000;17.6640
38.0000;16.9413
39.0000;13.8298
40.0000;10.1863
41.0000;8.1277
42.0000;10.3712
43.0000;15.1054
44.0000;18.5760
45.0000;16.4634
46.0000;10.9988
47.0000;6.1576
48.0000;5.6341
49.0000;8.5274
50.0000;12.4597
51.0000;14.7926
52.0000;16.3425
53.0000;18.0205
54.0000;20.8304
55.0000;24.0226
56.0000;27.4456
57.0000;31.2585
58.0000;34.8318
59.0000;38.6606
60.0000;42.7984
61.0000;47.1291
62.0000;53.7869
63.0000;65.0740
64.0000;79.3407
65.0000;96.7779
66.0000;117.4318
67.0000;139.1232
68.0000;164.1317
69.0000;197.8233
70.0000;234.3769
71.0000;271.6359
72.0000;313.7863
73.0000;352.3908
74.0000;387.7424
75.0000;429.2751
76.0000;465.8272
77.0000;501.6827
78.0000;551.0858
79.0000;603.9891
80.0000;653.7301
81.0000;704.0072
82.0000;744.5709
83.0000;783.1387
84.0000;837.1053
85.0000;897.6950
86.0000;958.8768
87.0000;1028.7710
88.0000;1095.3930
89.0000;1158.8920
90.0000;1231.1590
91.0000;1300.5220
92.0000;1363.8260
93.0000;1436.2960
94.0000;1505.3640
95.0000;1573.8180
96.0000;1660.3980
97.0000;1754.2310
98.0000;1844.5690
99.0000;1944.8770
100.0000;2041.6530
101.0000;2122.4300
102.0000;2211.6800
103.0000;2293.7760
104.0000;2366.9260
105.0000;2451.9040
106.0000;2537.8100
107.0000;2620.8760
108.0000;2728.5130
109.0000;2841.3600
110.0000;2949.3640
111.0000;3069.6670
112.0000;3188.1260
113.0000;3287.5680
114.0000;3394.8960
115.0000;3492.9840
116.0000;3585.2340
117.0000;3707.0660
118.0000;3848.8240
119.0000;3985.2730
120.0000;4117.2310
121.0000;4225.7920
122.0000;4313.6770
123.0000;4414.8130
124.0000;4517.5970
125.0000;4621.7710
126.0000;4759.3120
127.0000;4919.7840
128.0000;5078.6480
129.0000;5235.5610
130.0000;5369.1020
131.0000;5483.1140
132.0000;5619.9660
133.0000;5765.6180
134.0000;5900.4850
135.0000;6048.2450
136.0000;6191.6250
137.0000;6304.7450
138.0000;6403.9710
139.0000;6472.4000
140.0000;6501.4730
141.0000;6538.8310
142.0000;6578.4560
143.0000;6592.1090
144.0000;6584.9650
145.0000;6551.0660
146.0000;6501.1660
147.0000;6451.7150
148.0000;6413.2170
149.0000;6389.0700
150.0000;6380.6350
151.0000;6394.5590
152.0000;6421.3430
153.0000;6442.7730
154.0000;6455.9950
155.0000;6466.8670
156.0000;6483.3550
157.0000;6502.1290
158.0000;6517.6140
159.0000;6526.9480
160.0000;6527.2630
161.0000;6524.6760
162.0000;6529.2630
163.0000;6540.5650
164.0000;6555.3170
165.0000;6571.7130
166.0000;6588.3960
167.0000;6602.9290
168.0000;6617.5360
169.0000;6628.1400
170.0000;6636.6810
171.0000;6647.5000
172.0000;6658.8150
173.0000;6670.5290
174.0000;6687.3010
175.0000;6706.1680
176.0000;6725.3380
177.0000;6749.5100
178.0000;6772.4710
179.0000;6792.5730
180.0000;6810.9870
181.0000;6823.3880
182.0000;6831.6540
183.0000;6843.4420
184.0000;6854.8920
185.0000;6867.3210
186.0000;6887.5620
187.0000;6910.2150
188.0000;6933.0840
189.0000;6956.7610
190.0000;6974.8540
191.0000;6989.2470
192.0000;7006.5210
193.0000;7018.9110
194.0000;7026.3220
195.0000;7029.7760
196.0000;7027.7080
197.0000;7028.2340
198.0000;7043.4180
199.0000;7067.1230
200.0000;7087.5210
201.0000;7095.2260
202.0000;7090.6730
203.0000;7083.6870
204.0000;7084.9830
205.0000;7090.6170
206.0000;7099.1420
207.0000;7110.3010
208.0000;7122.6760
209.0000;7133.5560
210.0000;7141.1670
211.0000;7144.7370
212.0000;7149.3010
213.0000;7162.3960
214.0000;7176.1370
215.0000;7187.1000
216.0000;7189.3000
217.0000;7186.6930
218.0000;7189.4660
219.0000;7208.3110
220.0000;7234.1960
221.0000;7259.3750
222.0000;7277.8000
223.0000;7290.1670
224.0000;7302.6210
225.0000;7323.0670
226.0000;7339.2990
227.0000;7349.7260
228.0000;7349.5870
229.0000;7343.7880
230.0000;7345.6760
231.0000;7362.4900
232.0000;7387.6590
233.0000;7415.7220
234.0000;7443.6530
235.0000;7467.1880
236.0000;7486.7920
237.0000;7501.9280
238.0000;7509.7690
239.0000;7519.5700
240.0000;7534.0610
241.0000;7544.9820
242.0000;7551.0670
243.0000;7550.0790
244.0000;7546.1020
245.0000;7548.1720
246.0000;7558.7040
247.0000;7571.8080
248.0000;7583.0020
249.0000;7589.8730
250.0000;7595.8610
251.0000;7607.5140
252.0000;7623.8900
253.0000;7639.0900
254.0000;7651.1340
255.0000;7656.8530
256.0000;7658.2920
257.0000;7659.8480
258.0000;7660.5220
259.0000;7663.7260
260.0000;7675.1750
261.0000;7692.6580
262.0000;7712.0260
263.0000;7729.3380
264.0000;7741.6800
265.0000;7751.9630
266.0000;7766.1980
267.0000;7779.6540
268.0000;7792.4820
269.0000;7808.3780
270.0000;7822.6360
271.0000;7835.7650
272.0000;7853.2340
273.0000;7867.5100
274.0000;7876.6470
275.0000;7879.9340
276.0000;7876.6570
277.0000;7875.7000
278.0000;7884.4790
279.0000;7899.5540
280.0000;7919.5140
281.0000;7944.6730
282.0000;7970.1310
283.0000;7993.9680
284.0000;8016.1230
285.0000;8030.9500
286.0000;8043.5680
287.0000;8057.1810
288.0000;8066.0220
289.0000;8074.5920
290.0000;8084.5550
291.0000;8092.9170
292.0000;8104.4440
293.0000;8120.5330
294.0000;8134.2710
295.0000;8142.7520
296.0000;8142.6370
297.0000;8139.0570
298.0000;8141.4430
299.0000;8151.6150
300.0000;8164.8570
301.0000;8179.4330
302.0000;8192.4030
303.0000;8203.3500
304.0000;8214.4410
305.0000;8222.8100
306.0000;8227.8250
307.0000;8233.6880
308.0000;8237.4790
309.0000;8236.6930
310.0000;8229.3950
311.0000;8217.2090
312.0000;8209.0580
313.0000;8216.7630
314.0000;8236.0850
315.0000;8250.1540
316.0000;8238.8960
317.0000;8214.7980
318.0000;8201.2790
319.0000;8219.6710
320.0000;8260.2980
321.0000;8306.4880
322.0000;8344.9230
323.0000;8376.3760
324.0000;8408.6900
325.0000;8450.6900
326.0000;8483.1100
327.0000;8503.3550
328.0000;8506.6670
329.0000;8496.9540
330.0000;8496.0790
331.0000;8514.9520
332.0000;8541.4290
333.0000;8566.8310
334.0000;8587.1070
335.0000;8602.9400
336.0000;8620.7500
337.0000;8637.7780
338.0000;8650.9000
339.0000;8664.9930
340.0000;8677.6690
341.0000;8684.6690
342.0000;8688.4360
343.0000;8686.5650
344.0000;8682.9520
345.0000;8685.3780
346.0000;8692.1880
347.0000;8697.2380
348.0000;8694.6460
349.0000;8686.1820
350.0000;8680.3850
351.0000;8686.0100
352.0000;8699.4220
353.0000;8710.7710
354.0000;8713.4920
355.0000;8708.4350
356.0000;8700.2840
357.0000;8691.8220
358.0000;8683.7180
359.0000;8678.1070
360.0000;8676.6010
361.0000;8679.0500
362.0000;8681.8180
363.0000;8682.9540
364.0000;8683.3150
365.0000;8682.2580
366.0000;8679.3830
367.0000;8675.7550
368.0000;8672.5270
369.0000;8670.0880
370.0000;8670.2140
371.0000;8673.4210
372.0000;8680.4110
373.0000;8690.2700
374.0000;8703.5690
375.0000;8717.6860
376.0000;8729.6780
377.0000;8734.8800
378.0000;8733.2590
379.0000;8735.1930
380.0000;8754.9990
381.0000;8784.4660
382.0000;8811.9960
383.0000;8831.5590
384.0000;8837.7920
385.0000;8836.5000
386.0000;8833.8240
387.0000;8826.7280
388.0000;8822.8720
389.0000;8828.0210
390.0000;8839.1000
391.0000;8851.9420
392.0000;8865.2570
393.0000;8876.8430
394.0000;8886.8530
395.0000;8892.6980
396.0000;8896.9910
397.0000;8907.0880
398.0000;8924.9110
399.0000;8940.9340
400.0000;8948.7270
401.0000;8945.4750
402.0000;8940.1840
403.0000;8945.9670
404.0000;8961.3160
405.0000;8975.6850
406.0000;8980.3770
407.0000;8976.2800
408.0000;8974.1000
409.0000;8986.7500
410.0000;9007.0170
411.0000;9027.0250
412.0000;9039.3850
413.0000;9044.6590
414.0000;9048.9780
415.0000;9058.5040
416.0000;9067.4140
417.0000;9075.7440
418.0000;9083.1010
419.0000;9088.5770
420.0000;9094.6520
421.0000;9101.3640
422.0000;9107.9910
423.0000;9116.7350
424.0000;9126.7840
425.0000;9136.2050
426.0000;9145.3930
427.0000;9152.2680
428.0000;9156.1060
429.0000;9159.0610
430.0000;9159.5090
431.0000;9159.6000
432.0000;9163.0770
433.0000;9168.4610
434.0000;9174.1400
435.0000;9178.9030
436.0000;9182.7440
437.0000;9187.2020
438.0000;9194.5660
439.0000;9201.8460
440.0000;9209.1130
441.0000;9216.0590
442.0000;9221.1190
443.0000;9225.4500
444.0000;9228.7430
445.0000;9232.4180
446.0000;9241.4750
447.0000;9256.9480
448.0000;9271.9630
449.0000;9282.5250
450.0000;9285.1970
451.0000;9286.8500
452.0000;9298.5520
453.0000;9317.1310
454.0000;9333.7590
455.0000;9343.3620
456.0000;9344.4730
457.0000;9345.6080
458.0000;9357.9690
459.0000;9373.8460
460.0000;9387.5080
461.0000;9397.3410
462.0000;9401.0270
463.0000;9402.6080
464.0000;9403.3420
465.0000;9404.0740
466.0000;9411.0290
467.0000;9427.3300
468.0000;9444.8800
469.0000;9457.0920
470.0000;9460.8340
471.0000;9459.4970
472.0000;9460.7810
473.0000;9463.8280
474.0000;9466.3260
475.0000;9467.8310
476.0000;9468.1880
477.0000;9469.4240
478.0000;9471.9120
479.0000;9476.9780
480.0000;9487.2000
481.0000;9508.4210
482.0000;9531.8530
483.0000;9548.7200
484.0000;9551.1710
485.0000;9545.1980
486.0000;9545.2360
487.0000;9557.7820
488.0000;9575.5400
489.0000;9596.0630
490.0000;9616.9150
491.0000;9632.3140
492.0000;9639.5660
493.0000;9635.1930
494.0000;9627.8990
495.0000;9629.1030
496.0000;9637.7310
497.0000;9651.5770
498.0000;9670.0250
499.0000;9690.7150
500.0000;9711.0000
501.0000;9733.7100
502.0000;9749.8370
503.0000;9759.4160
504.0000;9762.0300
505.0000;9757.1120
506.0000;9755.0380
507.0000;9761.2510
508.0000;9767.6790
509.0000;9768.3060
510.0000;9761.3540
511.0000;9752.5610
512.0000;9748.6850
513.0000;9750.4090
514.0000;9752.5690
515.0000;9749.8930
516.0000;9743.5890
517.0000;9736.0100
518.0000;9728.4970
519.0000;9722.5480
520.0000;9718.6260
521.0000;9716.1920
522.0000;9716.8630
523.0000;9718.3210
524.0000;9718.8900
525.0000;9720.4840
526.0000;9723.1900
527.0000;9726.7200
528.0000;9732.3220
529.0000;9741.9220
530.0000;9754.2530
531.0000;9766.8370
532.0000;9779.3930
533.0000;9788.8420
534.0000;9795.0630
535.0000;9799.9620
536.0000;9801.0760
537.0000;9801.7000
538.0000;9803.5930
539.0000;9807.7240
540.0000;9818.3320
541.0000;9838.9220
542.0000;9863.4140
543.0000;9884.8820
544.0000;9899.4810
545.0000;9908.3420
546.0000;9920.2240
547.0000;9932.6520
548.0000;9940.6990
549.0000;9943.2870
550.0000;9939.2380
551.0000;9937.3890
552.0000;9949.4580
553.0000;9970.2350
554.0000;9988.4000
555.0000;9999.4020
556.0000;10000.8200
557.0000;9996.8570
558.0000;9989.5010
559.0000;9979.1900
560.0000;9973.2540
561.0000;9975.2070
562.0000;9979.0230
563.0000;9976.0210
564.0000;9965.5500
565.0000;9955.6110
566.0000;9953.2830
567.0000;9959.4590
568.0000;9968.8850
569.0000;9976.4110
570.0000;9983.0840
571.0000;9989.2140
572.0000;9995.6010
573.0000;10000.9900
574.0000;10008.7800
575.0000;10022.5800
576.0000;10033.9600
577.0000;10038.8000
578.0000;10033.5800
579.0000;10023.1300
580.0000;10016.3700
581.0000;10014.0500
582.0000;10013.0900
583.0000;10009.6400
584.0000;10005.9000
585.0000;10004.9000
586.0000;10008.0100
587.0000;10014.8800
588.0000;10023.2000
589.0000;10032.5300
590.0000;10038.9000
591.0000;10038.5200
592.0000;10028.4500
593.0000;10014.4500
594.0000;10004.3100
595.0000;10001.6200
596.0000;10000.8700
597.0000;9993.2940
598.0000;9981.9910
599.0000;9976.9360
600.0000;9985.6190
601.0000;10005.1300
602.0000;10025.1500
603.0000;10035.8600
604.0000;10039.3700
605.0000;10042.5300
606.0000;10048.6800
607.0000;10053.5000
608.0000;10056.4800
609.0000;10056.4900
610.0000;10058.9900
611.0000;10070.7900
612.0000;10091.9600
613.0000;10115.6100
614.0000;10140.6400
615.0000;10161.2600
616.0000;10176.8100
617.0000;10191.1600
618.0000;10198.8100
619.0000;10208.1200
620.0000;10225.1100
621.0000;10242.2700
622.0000;10262.0000
623.0000;10282.4800
624.0000;10297.1500
625.0000;10307.3200
626.0000;10308.7100
627.0000;10305.6200
628.0000;10305.0000
629.0000;10306.1400
630.0000;10311.9500
631.0000;10328.2700
632.0000;10349.0400
633.0000;10366.2900
634.0000;10373.0800
635.0000;10374.7000
636.0000;10383.1400
637.0000;10401.6100
638.0000;10420.8700
639.0000;10434.0800
640.0000;10437.8700
641.0000;10440.3900
642.0000;10456.0500
643.0000;10477.2600
644.0000;10492.0800
645.0000;10493.9200
646.0000;10482.8400
647.0000;10469.2800
648.0000;10460.6400
649.0000;10453.2300
650.0000;10445.4000
651.0000;10437.1800
652.0000;10430.6600
653.0000;10422.5900
654.0000;10415.5200
655.0000;10414.4400
656.0000;10423.2700
657.0000;10440.1400
658.0000;10454.1000
659.0000;10454.5800
660.0000;10446.9800
661.0000;10442.4900
662.0000;10448.3100
663.0000;10456.9600
664.0000;10462.5000
665.0000;10462.5300
666.0000;10459.2700
667.0000;10457.2100
668.0000;10455.1700
669.0000;10448.8800
670.0000;10431.8800
671.0000;10410.6800
672.0000;10396.3500
673.0000;10396.8800
674.0000;10408.9200
675.0000;10419.8700
676.0000;10423.2900
677.0000;10424.2000
678.0000;10426.0400
679.0000;10428.6600
680.0000;10431.2800
681.0000;10434.4600
682.0000;10437.7700
683.0000;10442.2400
684.0000;10451.1200
685.0000;10460.1200
686.0000;10465.0800
687.0000;10461.7700
688.0000;10455.2200
689.0000;10454.1800
690.0000;10462.0100
691.0000;10474.8400
692.0000;10489.6500
693.0000;10504.4800
694.0000;10517.9400
695.0000;10530.1700
696.0000;10538.3600
697.0000;10546.8100
698.0000;10561.9600
699.0000;10576.6300
700.0000;10589.6000
701.0000;10598.0800
702.0000;10605.4800
703.0000;10623.2200
704.0000;10649.9200
705.0000;10673.7100
706.0000;10687.4000
707.0000;10687.6800
708.0000;10685.1800
709.0000;10693.9400
710.0000;10704.9800
711.0000;10714.3300
712.0000;10718.5400
713.0000;10720.5000
714.0000;10726.6100
715.0000;10737.5300
716.0000;10752.2100
717.0000;10774.1400
718.0000;10798.9900
719.0000;10818.1000
720.0000;10825.6200
721.0000;10821.0700
722.0000;10819.1700
723.0000;10834.4200
724.0000;10852.5900
725.0000;10863.9400
726.0000;10862.8600
727.0000;10854.3100
728.0000;10846.9600
729.0000;10841.5500
730.0000;10839.9300
731.0000;10845.8800
732.0000;10857.4300
733.0000;10866.5900
734.0000;10866.4000
735.0000;10859.7800
736.0000;10851.9800
737.0000;10844.6100
738.0000;10841.1000
739.0000;10844.3000
740.0000;10855.6200
741.0000;10871.7500
742.0000;10887.4600
743.0000;10901.4600
744.0000;10914.1000
745.0000;10932.0100
746.0000;10943.3600
747.0000;10945.5300
748.0000;10934.2300
749.0000;10917.7500
750.0000;10909.8900
751.0000;10914.2900
752.0000;10922.9300
753.0000;10928.3400
754.0000;10930.1500
755.0000;10926.5000
756.0000;10916.4700
757.0000;10901.1500
758.0000;10883.2400
759.0000;10863.9100
760.0000;10852.6200
761.0000;10857.3900
762.0000;10881.5500
763.0000;10907.1900
764.0000;10913.3400
765.0000;10900.7600
766.0000;10885.2000
767.0000;10882.4100
768.0000;10885.1200
769.0000;10887.8900
770.0000;10887.2600
771.0000;10887.0100
772.0000;10887.7000
773.0000;10889.7800
774.0000;10897.5400
775.0000;10915.6600
776.0000;10941.3300
777.0000;10964.1000
778.0000;10982.6600
779.0000;10989.4800
780.0000;10988.3400
781.0000;10977.8900
782.0000;10965.4800
783.0000;10965.3300
784.0000;10980.5200
785.0000;11000.7800
786.0000;11015.5700
787.0000;11024.4500
788.0000;11029.8400
789.0000;11035.6700
790.0000;11038.4200
791.0000;11043.0100
792.0000;11050.8200
793.0000;11059.0400
794.0000;11067.0800
795.0000;11073.7100
796.0000;11078.7700
797.0000;11082.9000
798.0000;11086.3300
799.0000;11094.6900
800.0000;11113.6600
801.0000;11136.2500
802.0000;11160.4200
803.0000;11181.5800
804.0000;11196.7700
805.0000;11208.1300
806.0000;11211.2600
807.0000;11210.4200
808.0000;11213.0200
809.0000;11216.2400
810.0000;11222.8800
811.0000;11235.9100
812.0000;11249.4300
813.0000;11258.3900
814.0000;11260.1300
815.0000;11255.8800
816.0000;11250.5900
817.0000;11243.4000
818.0000;11236.6500
819.0000;11230.9300
820.0000;11229.0900
821.0000;11231.7300
822.0000;11238.5400
823.0000;11250.4900
824.0000;11266.9800
825.0000;11285.3900
826.0000;11300.4000
827.0000;11309.3600
828.0000;11308.1300
829.0000;11300.8900
830.0000;11292.3100
831.0000;11281.4000
832.0000;11272.0000
833.0000;11265.6400
834.0000;11264.4500
835.0000;11267.2700
836.0000;11274.8900
837.0000;11284.7900
838.0000;11293.9500
839.0000;11300.7900
840.0000;11304.9600
841.0000;11306.3800
842.0000;11304.7100
843.0000;11305.0900
844.0000;11308.1600
845.0000;11307.8900
846.0000;11298.1900
847.0000;11281.4400
848.0000;11266.6400
849.0000;11259.1700
850.0000;11259.7800
851.0000;11263.5000
852.0000;11268.0200
853.0000;11276.4300
854.0000;11289.0400
855.0000;11303.7800
856.0000;11317.3800
857.0000;11325.8900
858.0000;11329.2900
859.0000;11336.6600
860.0000;11355.3100
861.0000;11375.0900
862.0000;11390.7100
863.0000;11397.8200
864.0000;11399.6000
865.0000;11404.6000
866.0000;11408.4200
867.0000;11408.3200
868.0000;11401.1800
869.0000;11392.5500
870.0000;11391.9000
871.0000;11403.7700
872.0000;11422.4900
873.0000;11441.6400
874.0000;11458.5100
875.0000;11473.4500
876.0000;11489.5600
877.0000;11501.6700
878.0000;11512.3400
879.0000;11523.0500
880.0000;11531.1700
881.0000;11541.6700
882.0000;11553.4500
883.0000;11565.8500
884.0000;11582.4100
885.0000;11598.9700
886.0000;11614.9600
887.0000;11629.4300
888.0000;11642.7300
889.0000;11665.1500
890.0000;11698.1700
891.0000;11730.0600
892.0000;11754.9700
893.0000;11766.9600
894.0000;11772.4000
895.0000;11781.8800
896.0000;11787.8300
897.0000;11796.7600
898.0000;11810.6700
899.0000;11825.3400
900.0000;11842.7600
901.0000;11858.9400
902.0000;11868.9100
903.0000;11871.1600
904.0000;11864.7100
905.0000;11861.0500
906.0000;11867.1600
907.0000;11876.0300
908.0000;11881.1400
909.0000;11881.1100
910.0000;11884.5000
911.0000;11900.6700
912.0000;11925.4200
913.0000;11949.1200
914.0000;11967.9900
915.0000;11979.0200
916.0000;11986.9500
917.0000;11990.1200
918.0000;11991.3800
919.0000;11999.7000
920.0000;12011.9300
921.0000;12025.1200
922.0000;12038.6500
923.0000;12049.9900
924.0000;12061.1200
925.0000;12071.4200
926.0000;12078.4800
927.0000;12083.9200
928.0000;12086.4300
929.0000;12091.2000
930.0000;12107.7000
931.0000;12125.5600
932.0000;12136.6100
933.0000;12134.5900
934.0000;12126.2200
935.0000;12122.3200
936.0000;12123.1100
937.0000;12125.8300
938.0000;12125.2800
939.0000;12128.0300
940.0000;12141.6600
941.0000;12170.9600
942.0000;12203.1000
943.0000;12223.1500
944.0000;12226.9000
945.0000;12227.4200
946.0000;12243.1500
947.0000;12262.1200
948.0000;12278.6000
949.0000;12288.0500
950.0000;12290.0500
951.0000;12288.6400
952.0000;12283.4800
953.0000;12281.6900
954.0000;12293.4800
955.0000;12313.0900
956.0000;12331.8000
957.0000;12342.7700
958.0000;12347.4500
959.0000;12351.6000
960.0000;12353.7600
961.0000;12354.6800
962.0000;12355.8300
963.0000;12358.7200
964.0000;12369.3000
965.0000;12391.3100
966.0000;12417.3800
967.0000;12440.1300
968.0000;12455.2400
969.0000;12461.8700
970.0000;12463.6500
971.0000;12459.4300
972.0000;12461.0800
973.0000;12475.3500
974.0000;12498.0800
975.0000;12528.3100
976.0000;12560.8000
977.0000;12592.4700
978.0000;12625.2600
979.0000;12648.9400
980.0000;12663.9200
981.0000;12672.0700
982.0000;12668.7000
983.0000;12662.9400
984.0000;12655.1600
985.0000;12651.9200
986.0000;12662.2400
987.0000;12682.0200
988.0000;12701.7500
989.0000;12712.5200
990.0000;12720.0900
991.0000;12734.3700
992.0000;12753.5000
993.0000;12772.9000
994.0000;12790.9200
995.0000;12804.6900
996.0000;12819.7000
997.0000;12838.7300
998.0000;12856.3300
999.0000;12873.7500
1000.0000;12888.3800
1001.0000;12901.6600
1002.0000;12923.9100
1003.0000;12944.0100
1004.0000;12955.0200
1005.0000;12952.9400
1006.0000;12940.1400
1007.0000;12926.0700
1008.0000;12913.8400
1009.0000;12910.2500
1010.0000;12922.7700
1011.0000;12947.2700
1012.0000;12971.9800
1013.0000;12988.2500
1014.0000;12998.0200
1015.0000;13008.3800
1016.0000;13015.7300
1017.0000;13021.1400
1018.0000;13027.2300
1019.0000;13034.1600
1020.0000;13049.7100
1021.0000;13077.2900
1022.0000;13102.7500
1023.0000;13118.5700
1024.0000;13119.4200
1025.0000;13115.6900
1026.0000;13119.0400
1027.0000;13123.2300
1028.0000;13128.9600
1029.0000;13135.7300
1030.0000;13145.1200
1031.0000;13162.3900
1032.0000;13182.5900
1033.0000;13194.5800
1034.0000;13189.0800
1035.0000;13174.9000
1036.0000;13173.0700
1037.0000;13189.5400
1038.0000;13204.5400
1039.0000;13197.5000
1040.0000;13175.2800
1041.0000;13160.0800
1042.0000;13167.2700
1043.0000;13184.8900
1044.0000;13198.0900
1045.0000;13202.8500
1046.0000;13208.6400
1047.0000;13224.9300
1048.0000;13245.3500
1049.0000;13265.2700
1050.0000;13281.6800
1051.0000;13292.0100
1052.0000;13300.4200
1053.0000;13304.5400
1054.0000;13307.8200
1055.0000;13318.6700
1056.0000;13330.2500
1057.0000;13338.9600
1058.0000;13341.5700
1059.0000;13343.5800
1060.0000;13353.7500
1061.0000;13370.2000
1062.0000;13389.1200
1063.0000;13410.9800
1064.0000;13428.5800
1065.0000;13439.8200
1066.0000;13440.8700
1067.0000;13441.7600
1068.0000;13457.7500
1069.0000;13483.6200
1070.0000;13513.1100
1071.0000;13545.2000
1072.0000;13568.3700
1073.0000;13576.0400
1074.0000;13564.0200
1075.0000;13558.1300
1076.0000;13590.8200
1077.0000;13643.8900
1078.0000;13691.0600
1079.0000;13716.1700
1080.0000;13725.6800
1081.0000;13737.5200
1082.0000;13747.2100
1083.0000;13758.9000
1084.0000;13784.8100
1085.0000;13811.6700
1086.0000;13833.6000
1087.0000;13844.8100
1088.0000;13850.4300
1089.0000;13863.7000
1090.0000;13878.4000
1091.0000;13892.9100
1092.0000;13906.9200
1093.0000;13916.5400
1094.0000;13925.3100
1095.0000;13930.8900
1096.0000;13932.7200
1097.0000;13936.6500
1098.0000;13936.4600
1099.0000;13928.6300
1100.0000;13910.0500
1101.0000;13893.7700
1102.0000;13892.3700
1103.0000;13908.9500
1104.0000;13932.2300
1105.0000;13955.4500
1106.0000;13974.9500
1107.0000;13986.9400
1108.0000;13986.3500
1109.0000;13983.8900
1110.0000;13995.7900
1111.0000;14016.0300
1112.0000;14035.4000
1113.0000;14049.9200
1114.0000;14058.3700
1115.0000;14066.6900
1116.0000;14071.1400
1117.0000;14070.0900
1118.0000;14064.2900
1119.0000;14054.9100
1120.0000;14050.8000
1121.0000;14055.7400
1122.0000;14061.2100
1123.0000;14055.1500
1124.0000;14042.5600
1125.0000;14036.6900
1126.0000;14049.2900
1127.0000;14065.8400
1128.0000;14066.1500
1129.0000;14047.7300
1130.0000;14032.9800
1131.0000;14046.2200
1132.0000;14072.0300
1133.0000;14085.1900
1134.0000;14072.0500
1135.0000;14051.5500
1136.0000;14042.8800
1137.0000;14046.1100
1138.0000;14052.8500
1139.0000;14057.8600
1140.0000;14062.6900
1141.0000;14066.3700
1142.0000;14067.6400
1143.0000;14067.6900
1144.0000;14067.8200
1145.0000;14068.2200
1146.0000;14071.1900
1147.0000;14077.4900
1148.0000;14085.3900
1149.0000;14093.1800
1150.0000;14099.7500
1151.0000;14105.4800
1152.0000;14112.7500
1153.0000;14116.9000
1154.0000;14117.4800
1155.0000;14113.4800
1156.0000;14108.9100
1157.0000;14107.6800
1158.0000;14110.3800
1159.0000;14117.0400
1160.0000;14127.8500
1161.0000;14140.9500
1162.0000;14155.8300
1163.0000;14169.1400
1164.0000;14182.6900
1165.0000;14199.6800
1166.0000;14210.3500
1167.0000;14209.0800
1168.0000;14194.4500
1169.0000;14182.1100
1170.0000;14187.0300
1171.0000;14206.4300
1172.0000;14233.5200
1173.0000;14263.8100
1174.0000;14290.6200
1175.0000;14308.3900
1176.0000;14312.1800
1177.0000;14311.7000
1178.0000;14313.7600
1179.0000;14315.7100
1180.0000;14323.1900
1181.0000;14335.3900
1182.0000;14349.9000
1183.0000;14368.3700
1184.0000;14382.2000
1185.0000;14387.4700
1186.0000;14379.8100
1187.0000;14372.3200
1188.0000;14383.3300
1189.0000;14404.8900
1190.0000;14418.9000
1191.0000;14412.4600
1192.0000;14407.5600
1193.0000;14434.2900
1194.0000;14486.9400
1195.0000;14529.2000
1196.0000;14533.5500
1197.0000;14516.5400
1198.0000;14514.1200
1199.0000;14532.4000
1200.0000;14551.5900
1201.0000;14561.1900
1202.0000;14560.6600
1203.0000;14553.9100
1204.0000;14541.2800
1205.0000;14532.2300
1206.0000;14538.2600
1207.0000;14558.4900
1208.0000;14581.2900
1209.0000;14599.2800
1210.0000;14611.6500
1211.0000;14620.6800
1212.0000;14623.8700
1213.0000;14626.5200
1214.0000;14636.7000
1215.0000;14648.6200
1216.0000;14661.2800
1217.0000;14672.2800
1218.0000;14683.2700
1219.0000;14701.8100
1220.0000;14717.5200
1221.0000;14721.6900
1222.0000;14707.8800
1223.0000;14691.7400
1224.0000;14693.5300
1225.0000;14711.8400
1226.0000;14734.6900
1227.0000;14757.4400
1228.0000;14774.9500
1229.0000;14783.2200
1230.0000;14779.4700
1231.0000;14778.2200
1232.0000;14798.1600
1233.0000;14822.5900
1234.0000;14836.1600
1235.0000;14832.3600
1236.0000;14824.7600
1237.0000;14829.0100
1238.0000;14839.4600
1239.0000;14852.9200
1240.0000;14868.1800
1241.0000;14876.4100
1242.0000;14869.2800
1243.0000;14849.5700
1244.0000;14835.1300
1245.0000;14836.4800
1246.0000;14849.7000
1247.0000;14870.4400
1248.0000;14895.0600
1249.0000;14911.2800
1250.0000;14908.3200
1251.0000;14894.3200
1252.0000;14889.4800
1253.0000;14897.5000
1254.0000;14910.1500
1255.0000;14919.5100
1256.0000;14929.6800
1257.0000;14947.8500
1258.0000;14974.1900
1259.0000;15000.3700
1260.0000;15024.9300
1261.0000;15040.5000
1262.0000;15051.9800
1263.0000;15060.9100
1264.0000;15060.9800
1265.0000;15055.5900
1266.0000;15044.2500
1267.0000;15034.5000
1268.0000;15031.8600
1269.0000;15034.2900
1270.0000;15036.1500
1271.0000;15038.9200
1272.0000;15046.9800
1273.0000;15063.6200
1274.0000;15082.9400
1275.0000;15098.4500
1276.0000;15106.6000
1277.0000;15114.9900
1278.0000;15136.1700
1279.0000;15158.5200
1280.0000;15177.7000
1281.0000;15187.8800
1282.0000;15190.1300
1283.0000;15189.4200
1284.0000;15184.7800
1285.0000;15185.8800
1286.0000;15196.3800
1287.0000;15213.3500
1288.0000;15236.6300
1289.0000;15260.4100
1290.0000;15280.7300
1291.0000;15292.4600
1292.0000;15301.6000
1293.0000;15325.4300
1294.0000;15356.6900
1295.0000;15383.3900
1296.0000;15395.8900
1297.0000;15399.6500
1298.0000;15414.0900
1299.0000;15435.4100
1300.0000;15454.9100
1301.0000;15468.4200
1302.0000;15476.6500
1303.0000;15494.1600
1304.0000;15518.2900
1305.0000;15538.2100
1306.0000;15549.8100
1307.0000;15551.0000
1308.0000;15554.0800
1309.0000;15560.8300
1310.0000;15569.7500
1311.0000;15584.5200
1312.0000;15600.8300
1313.0000;15618.6300
1314.0000;15634.4500
1315.0000;15648.3000
1316.0000;15667.7900
1317.0000;15683.2900
1318.0000;15692.1800
1319.0000;15690.8300
1320.0000;15684.9700
1321.0000;15685.4900
1322.0000;15692.3400
1323.0000;15706.6700
1324.0000;15731.0400
1325.0000;15754.4800
1326.0000;15769.2200
1327.0000;15771.7400
1328.0000;15775.8600
1329.0000;15793.3800
1330.0000;15807.1200
1331.0000;15802.2000
1332.0000;15779.6900
1333.0000;15766.4600
1334.0000;15785.5800
1335.0000;15814.3800
1336.0000;15821.6800
1337.0000;15805.2400
1338.0000;15792.2800
1339.0000;15805.9900
1340.0000;15828.8400
1341.0000;15843.2400
1342.0000;15843.1600
1343.0000;15837.8000
1344.0000;15831.8600
1345.0000;15829.5200
1346.0000;15842.8400
1347.0000;15873.8300
1348.0000;15901.0500
1349.0000;15911.1200
1350.0000;15903.2300
1351.0000;15890.8500
1352.0000;15876.4300
1353.0000;15867.1800
1354.0000;15871.1900
1355.0000;15886.8500
1356.0000;15903.3100
1357.0000;15915.4700
1358.0000;15925.7900
1359.0000;15936.9500
1360.0000;15945.1700
1361.0000;15954.3600
1362.0000;15965.3200
1363.0000;15973.3200
1364.0000;15980.0600
1365.0000;15981.5500
1366.0000;15978.0000
1367.0000;15968.9200
1368.0000;15961.3800
1369.0000;15963.1600
1370.0000;15973.7300
1371.0000;15985.5500
1372.0000;15994.0600
1373.0000;16003.3900
1374.0000;16019.2000
1375.0000;16037.3300
1376.0000;16056.2700
1377.0000;16074.0600
1378.0000;16087.7800
1379.0000;16103.8900
1380.0000;16115.7700
1381.0000;16124.3500
1382.0000;16130.6500
1383.0000;16130.2900
1384.0000;16123.2800
1385.0000;16112.4900
1386.0000;16112.2600
1387.0000;16131.3500
1388.0000;16159.7200
1389.0000;16183.9600
1390.0000;16202.7300
1391.0000;16227.2700
1392.0000;16263.8400
1393.0000;16295.4700
1394.0000;16319.7900
1395.0000;16328.6700
1396.0000;16333.9600
1397.0000;16343.6500
1398.0000;16352.1900
1399.0000;16365.3600
1400.0000;16379.9400
1401.0000;16394.9700
1402.0000;16409.6100
1403.0000;16422.4600
1404.0000;16438.9100
1405.0000;16454.8900
1406.0000;16471.4000
1407.0000;16489.2400
1408.0000;16504.4800
1409.0000;16521.8000
1410.0000;16536.4900
1411.0000;16550.5100
1412.0000;16565.0100
1413.0000;16577.9800
1414.0000;16597.3100
1415.0000;16617.1700
1416.0000;16633.2800
1417.0000;16643.0000
1418.0000;16647.3800
1419.0000;16659.4100
1420.0000;16673.0700
1421.0000;16677.8300
1422.0000;16667.7200
1423.0000;16654.1800
1424.0000;16652.5400
1425.0000;16663.4600
1426.0000;16680.8400
1427.0000;16701.1400
1428.0000;16721.5200
1429.0000;16740.2600
1430.0000;16752.4700
1431.0000;16765.4700
1432.0000;16782.9000
1433.0000;16796.3600
1434.0000;16806.5000
1435.0000;16809.4600
1436.0000;16811.2500
1437.0000;16815.5500
1438.0000;16816.1100
1439.0000;16811.2100
1440.0000;16801.3300
1441.0000;16789.5200
1442.0000;16777.1700
1443.0000;16776.6300
1444.0000;16799.0500
1445.0000;16839.8200
1446.0000;16875.6500
1447.0000;16895.1200
1448.0000;16902.1600
1449.0000;16910.1800
1450.0000;16910.4700
1451.0000;16907.6300
1452.0000;16903.2500
1453.0000;16897.6600
1454.0000;16892.6900
1455.0000;16891.1000
1456.0000;16897.5200
1457.0000;16913.4700
1458.0000;16923.3700
1459.0000;16912.2700
1460.0000;16886.3500
1461.0000;16860.1800
1462.0000;16840.4200
1463.0000;16833.0900
1464.0000;16836.6900
1465.0000;16855.3100
1466.0000;16876.6700
1467.0000;16896.8000
1468.0000;16915.5000
1469.0000;16934.0200
1470.0000;16945.8600
1471.0000;16958.1800
1472.0000;16967.3100
1473.0000;16967.2200
1474.0000;16955.4700
1475.0000;16937.7200
1476.0000;16928.9300
1477.0000;16932.4000
1478.0000;16942.1700
1479.0000;16950.4100
1480.0000;16963.3000
1481.0000;16985.4200
1482.0000;17012.8700
1483.0000;17032.6500
1484.0000;17037.5900
1485.0000;17032.9600
1486.0000;17037.0300
1487.0000;17046.5400
1488.0000;17055.5900
1489.0000;17060.9300
1490.0000;17063.3500
1491.0000;17067.4700
1492.0000;17070.1100
1493.0000;17067.5400
1494.0000;17056.7100
1495.0000;17049.4400
1496.0000;17056.2100
1497.0000;17076.1200
1498.0000;17103.0800
1499.0000;17132.1700
1500.0000;17154.0800
1501.0000;17162.1900
1502.0000;17159.2700
1503.0000;17170.7600
1504.0000;17203.1400
1505.0000;17238.9200
1506.0000;17276.8000
1507.0000;17300.3900
1508.0000;17306.2300
1509.0000;17288.3600
1510.0000;17270.5500
1511.0000;17280.9500
1512.0000;17300.1300
1513.0000;17299.8400
1514.0000;17281.4300
1515.0000;17285.4000
1516.0000;17343.9000
1517.0000;17416.2100
1518.0000;17453.2300
1519.0000;17445.2600
1520.0000;17425.3300
1521.0000;17413.0500
1522.0000;17407.7900
1523.0000;17422.1100
1524.0000;17453.5500
1525.0000;17483.4000
1526.0000;17499.8700
1527.0000;17511.1500
1528.0000;17535.5800
1529.0000;17558.6000
1530.0000;17569.3200
1531.0000;17561.6100
1532.0000;17550.8000
1533.0000;17556.8600
1534.0000;17573.5100
1535.0000;17593.5400
1536.0000;17613.0300
1537.0000;17634.0300
1538.0000;17662.1700
1539.0000;17683.6300
1540.0000;17696.6900
1541.0000;17695.5300
1542.0000;17686.3900
1543.0000;17674.5400
1544.0000;17663.5500
1545.0000;17664.6900
1546.0000;17676.5400
1547.0000;17681.9000
1548.0000;17669.5000
1549.0000;17656.4100
1550.0000;17659.5000
1551.0000;17675.2400
1552.0000;17691.0500
1553.0000;17699.7500
1554.0000;17709.3300
1555.0000;17726.9000
1556.0000;17748.6300
1557.0000;17778.4400
1558.0000;17812.4400
1559.0000;17836.8500
1560.0000;17849.7600
1561.0000;17843.2400
1562.0000;17826.6600
1563.0000;17803.1000
1564.0000;17791.9300
1565.0000;17808.8600
1566.0000;17839.9300
1567.0000;17866.3200
1568.0000;17881.6200
1569.0000;17883.3900
1570.0000;17867.9900
1571.0000;17847.3900
1572.0000;17843.6600
1573.0000;17850.4200
1574.0000;17849.3500
1575.0000;17834.7300
1576.0000;17816.9900
1577.0000;17802.9300
1578.0000;17793.2600
1579.0000;17780.4400
1580.0000;17767.9800
1581.0000;17764.6400
1582.0000;17773.6300
1583.0000;17792.4600
1584.0000;17811.0500
1585.0000;17826.4000
1586.0000;17840.5800
1587.0000;17855.3400
1588.0000;17860.5500
1589.0000;17853.8800
1590.0000;17835.7100
1591.0000;17818.1300
1592.0000;17807.3400
1593.0000;17804.2300
1594.0000;17807.0400
1595.0000;17817.1600
1596.0000;17827.3500
1597.0000;17835.0500
1598.0000;17839.9400
1599.0000;17839.3500
1600.0000;17839.5500
1601.0000;17854.4900
1602.0000;17879.8500
1603.0000;17898.1000
1604.0000;17897.0900
1605.0000;17887.5600
1606.0000;17885.4200
1607.0000;17888.4300
1608.0000;17895.2100
1609.0000;17905.4100
1610.0000;17914.5400
1611.0000;17915.1600
1612.0000;17914.3300
1613.0000;17924.6800
1614.0000;17948.4600
1615.0000;17980.7800
1616.0000;18024.7000
1617.0000;18059.4000
1618.0000;18068.4200
1619.0000;18049.2500
1620.0000;18031.8000
1621.0000;18033.3800
1622.0000;18043.5300
1623.0000;18055.8100
1624.0000;18069.8300
1625.0000;18081.2700
1626.0000;18086.7000
1627.0000;18097.1600
1628.0000;18132.9500
1629.0000;18163.8800
1630.0000;18164.9400
1631.0000;18131.3200
1632.0000;18089.9900
1633.0000;18059.1800
1634.0000;18045.8100
1635.0000;18058.1200
1636.0000;18091.6900
1637.0000;18110.4600
1638.0000;18097.3600
1639.0000;18090.4600
1640.0000;18130.1400
1641.0000;18186.2600
1642.0000;18220.6100
1643.0000;18221.1500
1644.0000;18203.3200
1645.0000;18176.5500
1646.0000;18151.7100
1647.0000;18151.7200
1648.0000;18174.1300
1649.0000;18191.4100
1650.0000;18189.6100
1651.0000;18181.0100
1652.0000;18175.6600
1653.0000;18171.3300
1654.0000;18167.4900
1655.0000;18165.5200
1656.0000;18166.3600
1657.0000;18170.0200
1658.0000;18175.4200
1659.0000;18182.9700
1660.0000;18187.6800
1661.0000;18179.9900
1662.0000;18154.8000
1663.0000;18128.0700
1664.0000;18114.4900
1665.0000;18111.6300
1666.0000;18100.8200
1667.0000;18081.8400
1668.0000;18068.5500
1669.0000;18067.5100
1670.0000;18075.2900
1671.0000;18078.9700
1672.0000;18080.3400
1673.0000;18083.7100
1674.0000;18090.3100
1675.0000;18097.6000
1676.0000;18104.4500
1677.0000;18109.8300
1678.0000;18115.9000
1679.0000;18121.4900
1680.0000;18125.7700
1681.0000;18131.5500
1682.0000;18131.5100
1683.0000;18121.0000
1684.0000;18102.9200
1685.0000;18088.6800
1686.0000;18086.4200
1687.0000;18080.3000
1688.0000;18045.5500
1689.0000;18009.5800
1690.0000;18002.4700
1691.0000;18031.3800
1692.0000;18052.4200
1693.0000;18031.3500
1694.0000;18001.9300
1695.0000;18002.0100
1696.0000;18021.2700
1697.0000;18026.8200
1698.0000;18005.8100
1699.0000;17982.9000
1700.0000;17978.5500
1701.0000;17984.2400
1702.0000;17983.0300
1703.0000;17975.9900
1704.0000;17971.5700
1705.0000;17973.8100
1706.0000;17978.1300
1707.0000;17979.0400
1708.0000;17976.7000
1709.0000;17971.2200
1710.0000;17963.1700
1711.0000;17957.9400
1712.0000;17960.6300
1713.0000;17966.2100
1714.0000;17964.1600
1715.0000;17956.7100
1716.0000;17954.7000
1717.0000;17963.5400
1718.0000;17972.5600
1719.0000;17965.0000
1720.0000;17957.1800
1721.0000;17978.4800
1722.0000;18028.3300
1723.0000;18066.2500
1724.0000;18066.5600
1725.0000;18041.7500
1726.0000;18018.9300
1727.0000;17995.4800
1728.0000;17971.4600
1729.0000;17950.9800
1730.0000;17942.3400
1731.0000;17946.7600
1732.0000;17962.4100
1733.0000;17970.8100
1734.0000;17972.7500
1735.0000;17981.1500
1736.0000;18002.5200
1737.0000;18015.9900
1738.0000;18000.9600
1739.0000;17972.2900
1740.0000;17962.5800
1741.0000;17978.1700
1742.0000;17997.4400
1743.0000;18006.9300
1744.0000;18009.1500
1745.0000;18003.0300
1746.0000;17994.0500
1747.0000;18002.8000
1748.0000;18035.6000
1749.0000;18061.6000
1750.0000;18056.1600
1751.0000;18039.1200
1752.0000;18047.1300
1753.0000;18072.3300
1754.0000;18084.1300
1755.0000;18068.6500
1756.0000;18047.3500
1757.0000;18046.8800
1758.0000;18051.9100
1759.0000;18040.3300
1760.0000;18013.2700
1761.0000;17993.0200
1762.0000;17991.4200
1763.0000;17997.6700
1764.0000;17992.6300
1765.0000;17985.3100
1766.0000;17983.0300
1767.0000;17988.4000
1768.0000;17999.3400
1769.0000;18016.2100
1770.0000;18028.9500
1771.0000;18028.4400
1772.0000;18016.0000
1773.0000;18007.0700
1774.0000;18006.9200
1775.0000;18008.1800
1776.0000;18004.0400
1777.0000;18001.6500
1778.0000;18006.7100
1779.0000;18018.2900
1780.0000;18029.4000
1781.0000;18036.9400
1782.0000;18037.1000
1783.0000;18033.1000
1784.0000;18018.3100
1785.0000;17991.3900
1786.0000;17955.1500
1787.0000;17918.4800
1788.0000;17886.0400
1789.0000;17866.6600
1790.0000;17852.1500
1791.0000;17852.7900
1792.0000;17855.4200
1793.0000;17860.8200
1794.0000;17868.5300
1795.0000;17877.1700
1796.0000;17882.3000
1797.0000;17882.3900
1798.0000;17875.4500
1799.0000;17865.2900
1800.0000;17853.0800
1801.0000;17834.4300
1802.0000;17807.3100
1803.0000;17783.5400
1804.0000;17767.3500
1805.0000;17762.6500
1806.0000;17755.1300
1807.0000;17744.2300
1808.0000;17732.7500
1809.0000;17719.2900
1810.0000;17706.7000
1811.0000;17692.0900
1812.0000;17678.6500
1813.0000;17663.3400
1814.0000;17647.3700
1815.0000;17634.4600
1816.0000;17623.6600
1817.0000;17618.8600
1818.0000;17614.6100
1819.0000;17613.1300
1820.0000;17609.6000
1821.0000;17602.9500
1822.0000;17596.2400
1823.0000;17589.6500
1824.0000;17586.3600
1825.0000;17586.0700
1826.0000;17589.7700
1827.0000;17594.9000
1828.0000;17599.8000
1829.0000;17597.9700
1830.0000;17581.2800
1831.0000;17563.0800
1832.0000;17559.6600
1833.0000;17571.6300
1834.0000;17586.1900
1835.0000;17597.8600
1836.0000;17604.9600
1837.0000;17605.7000
1838.0000;17600.8100
1839.0000;17599.0000
1840.0000;17598.0500
1841.0000;17591.5800
1842.0000;17578.3500
1843.0000;17567.0400
1844.0000;17565.3300
1845.0000;17566.6700
1846.0000;17558.2700
1847.0000;17543.0400
1848.0000;17525.9800
1849.0000;17510.9100
1850.0000;17511.9200
1851.0000;17541.9300
1852.0000;17577.7100
1853.0000;17585.0700
1854.0000;17564.1900
1855.0000;17539.7800
1856.0000;17521.6100
1857.0000;17521.3800
1858.0000;17548.1900
1859.0000;17592.5500
1860.0000;17638.1700
1861.0000;17672.7200
1862.0000;17690.4100
1863.0000;17683.9400
1864.0000;17673.0300
1865.0000;17680.7000
1866.0000;17691.4900
1867.0000;17696.2600
1868.0000;17695.1300
1869.0000;17693.5400
1870.0000;17692.6200
1871.0000;17693.3200
1872.0000;17697.3500
1873.0000;17702.2400
1874.0000;17704.5600
1875.0000;17705.4800
1876.0000;17709.1200
1877.0000;17716.2300
1878.0000;17728.7700
1879.0000;17749.3300
1880.0000;17766.0100
1881.0000;17766.2900
1882.0000;17758.0100
1883.0000;17773.1700
1884.0000;17809.9900
1885.0000;17827.8700
1886.0000;17800.9100
1887.0000;17768.8800
1888.0000;17780.3300
1889.0000;17814.4100
1890.0000;17828.8300
1891.0000;17819.3300
1892.0000;17806.0300
1893.0000;17796.7200
1894.0000;17801.8100
1895.0000;17835.9900
1896.0000;17879.8500
1897.0000;17901.7000
1898.0000;17896.9100
1899.0000;17898.9500
1900.0000;17919.9500
1901.0000;17942.3900
1902.0000;17959.5200
1903.0000;17965.0800
1904.0000;17962.3400
1905.0000;17948.0800
1906.0000;17926.5800
1907.0000;17901.6100
1908.0000;17888.2400
1909.0000;17894.1800
1910.0000;17916.4300
1911.0000;17944.0000
1912.0000;17966.4200
1913.0000;17962.9200
1914.0000;17928.7800
1915.0000;17901.3000
1916.0000;17908.4900
1917.0000;17927.0100
1918.0000;17925.8900
1919.0000;17920.2300
1920.0000;17934.1800
1921.0000;17964.9200
1922.0000;17986.4000
1923.0000;17983.6500
1924.0000;17971.9100
1925.0000;17970.0300
1926.0000;17972.5300
1927.0000;17978.3600
1928.0000;17986.6300
1929.0000;17995.6800
1930.0000;18003.0700
1931.0000;18004.9700
1932.0000;17997.7900
1933.0000;17989.2200
1934.0000;17992.9900
1935.0000;18006.1600
1936.0000;18017.6000
1937.0000;18023.3200
1938.0000;18021.5000
1939.0000;18008.5600
1940.0000;18000.2900
1941.0000;18016.9500
1942.0000;18046.9500
1943.0000;18060.9500
1944.0000;18058.7100
1945.0000;18074.7600
1946.0000;18125.3800
1947.0000;18175.9000
1948.0000;18205.2200
1949.0000;18211.0400
1950.0000;18212.4700
1951.0000;18206.1000
1952.0000;18205.0900
1953.0000;18214.4400
1954.0000;18228.1400
1955.0000;18247.1600
1956.0000;18257.0300
1957.0000;18244.8500
1958.0000;18217.8200
1959.0000;18202.4700
1960.0000;18205.0500
1961.0000;18212.6000
1962.0000;18218.7400
1963.0000;18224.2000
1964.0000;18224.8900
1965.0000;18224.5200
1966.0000;18231.1900
1967.0000;18242.7400
1968.0000;18252.7500
1969.0000;18258.3400
1970.0000;18260.7400
1971.0000;18260.7500
1972.0000;18262.4600
1973.0000;18271.8500
1974.0000;18289.1800
1975.0000;18314.3100
1976.0000;18343.6700
1977.0000;18376.3200
1978.0000;18409.1000
1979.0000;18433.4000
1980.0000;18454.3200
1981.0000;18464.4600
1982.0000;18482.4900
1983.0000;18498.9500
1984.0000;18508.4400
1985.0000;18506.5000
1986.0000;18490.7400
1987.0000;18459.4100
1988.0000;18436.2500
1989.0000;18443.3800
1990.0000;18476.4200
1991.0000;18510.2900
1992.0000;18535.8400
1993.0000;18546.2600
1994.0000;18534.7100
1995.0000;18528.5600
1996.0000;18562.6300
1997.0000;18600.1400
1998.0000;18604.2400
1999.0000;18577.7600
2000.0000;18553.0000
2001.0000;18537.5200
2002.0000;18521.1000
2003.0000;18500.7100
2004.0000;18487.2900
2005.0000;18479.7000
2006.0000;18484.6100
2007.0000;18496.8300
2008.0000;18513.7500
2009.0000;18524.1100
2010.0000;18522.0000
2011.0000;18513.7700
2012.0000;18501.0900
2013.0000;18500.9700
2014.0000;18536.1300
2015.0000;18585.8900
2016.0000;18612.3800
2017.0000;18608.6800
2018.0000;18609.7200
2019.0000;18628.1300
2020.0000;18626.7300
2021.0000;18580.7400
2022.0000;18529.5600
2023.0000;18522.7000
2024.0000;18547.4100
2025.0000;18550.8200
2026.0000;18528.3900
2027.0000;18503.7400
2028.0000;18486.4900
2029.0000;18485.1400
2030.0000;18508.7100
2031.0000;18537.2400
2032.0000;18539.1500
2033.0000;18516.1800
2034.0000;18490.6000
2035.0000;18469.4700
2036.0000;18457.3800
2037.0000;18458.6600
2038.0000;18474.4500
2039.0000;18500.3500
2040.0000;18527.7900
2041.0000;18544.3700
2042.0000;18542.9600
2043.0000;18524.7700
2044.0000;18494.6200
2045.0000;18484.3600
2046.0000;18516.7700
2047.0000;18554.6000
2048.0000;18563.6400
2049.0000;18551.9500
2050.0000;18538.6900
2051.0000;18524.1000
2052.0000;18516.9200
2053.0000;18519.8000
2054.0000;18518.2000
2055.0000;18503.9400
2056.0000;18483.6000
2057.0000;18458.8500
2058.0000;18440.1300
2059.0000;18434.1100
2060.0000;18441.4000
2061.0000;18439.3500
2062.0000;18424.8200
2063.0000;18416.9100
2064.0000;18426.0400
2065.0000;18440.5000
2066.0000;18447.4000
2067.0000;18448.7200
2068.0000;18447.7900
2069.0000;18444.0400
2070.0000;18440.5100
2071.0000;18439.2500
2072.0000;18446.1800
2073.0000;18465.5500
2074.0000;18482.3800
2075.0000;18490.2300
2076.0000;18477.7900
2077.0000;18436.6600
2078.0000;18381.3200
2079.0000;18354.0500
2080.0000;18367.8600
2081.0000;18384.0100
2082.0000;18379.9200
2083.0000;18380.4800
2084.0000;18403.2800
2085.0000;18428.2600
2086.0000;18434.5600
2087.0000;18425.7800
2088.0000;18429.2400
2089.0000;18445.6100
2090.0000;18455.7900
2091.0000;18451.4800
2092.0000;18443.5200
2093.0000;18444.1100
2094.0000;18443.2100
2095.0000;18428.6100
2096.0000;18411.9900
2097.0000;18413.3300
2098.0000;18434.2900
2099.0000;18457.8600
2100.0000;18474.3600
2101.0000;18487.5300
2102.0000;18500.2300
2103.0000;18506.3700
2104.0000;18511.7500
2105.0000;18510.2500
2106.0000;18505.4000
2107.0000;18495.4000
2108.0000;18478.7000
2109.0000;18456.7700
2110.0000;18437.9400
2111.0000;18427.6700
2112.0000;18424.7000
2113.0000;18420.8100
2114.0000;18418.3900
2115.0000;18410.5000
2116.0000;18398.7000
2117.0000;18379.7400
2118.0000;18359.7700
2119.0000;18361.6000
2120.0000;18396.3100
2121.0000;18436.0300
2122.0000;18454.1500
2123.0000;18459.2600
2124.0000;18471.3900
2125.0000;18480.5300
2126.0000;18486.9300
2127.0000;18488.6300
2128.0000;18490.8600
2129.0000;18495.1600
2130.0000;18502.2600
2131.0000;18514.6200
2132.0000;18523.6900
2133.0000;18529.7100
2134.0000;18520.5400
2135.0000;18484.7500
2136.0000;18436.8200
2137.0000;18414.6400
2138.0000;18428.8500
2139.0000;18437.6400
2140.0000;18419.9100
2141.0000;18404.2200
2142.0000;18409.0900
2143.0000;18420.9600
2144.0000;18423.9200
2145.0000;18416.6700
2146.0000;18396.7700
2147.0000;18368.4800
2148.0000;18349.8300
2149.0000;18348.4300
2150.0000;18347.8300
2151.0000;18334.4700
2152.0000;18331.4000
2153.0000;18359.1200
2154.0000;18392.2500
2155.0000;18392.9800
2156.0000;18365.8400
2157.0000;18339.4900
2158.0000;18321.4500
2159.0000;18310.9700
2160.0000;18311.5500
2161.0000;18305.7500
2162.0000;18275.4800
2163.0000;18247.5200
2164.0000;18247.0200
2165.0000;18261.1100
2166.0000;18257.3600
2167.0000;18239.1300
2168.0000;18218.6900
2169.0000;18202.8900
2170.0000;18204.4700
2171.0000;18230.2300
2172.0000;18251.5500
2173.0000;18242.4600
2174.0000;18219.8400
2175.0000;18205.6300
2176.0000;18196.6700
2177.0000;18185.7000
2178.0000;18178.1900
2179.0000;18178.3000
2180.0000;18187.3000
2181.0000;18194.8400
2182.0000;18193.6400
2183.0000;18196.1000
2184.0000;18216.4800
2185.0000;18230.6600
2186.0000;18215.0900
2187.0000;18183.1500
2188.0000;18165.7900
2189.0000;18165.2400
2190.0000;18161.8100
2191.0000;18152.9700
2192.0000;18145.4200
2193.0000;18141.5400
2194.0000;18132.6800
2195.0000;18106.9800
2196.0000;18084.1900
2197.0000;18076.7200
2198.0000;18086.5600
2199.0000;18103.7200
2200.0000;18120.1300
2201.0000;18111.8100
2202.0000;18076.1400
2203.0000;18063.0600
2204.0000;18097.7600
2205.0000;18134.1900
2206.0000;18138.9200
2207.0000;18121.7500
2208.0000;18100.6900
2209.0000;18073.8300
2210.0000;18049.0100
2211.0000;18030.6400
2212.0000;18008.2400
2213.0000;17989.0700
2214.0000;17988.6300
2215.0000;18013.8900
2216.0000;18047.3200
2217.0000;18078.4000
2218.0000;18085.2700
2219.0000;18050.3300
2220.0000;17996.3800
2221.0000;17975.4500
2222.0000;17985.4100
2223.0000;17988.9300
2224.0000;17985.7500
2225.0000;17992.4300
2226.0000;18011.1000
2227.0000;18023.6500
2228.0000;18016.2000
2229.0000;18007.5700
2230.0000;18017.4100
2231.0000;18034.9100
2232.0000;18050.1200
2233.0000;18058.4400
2234.0000;18060.1200
2235.0000;18052.4200
2236.0000;18041.4900
2237.0000;18029.3000
2238.0000;18015.1400
2239.0000;18000.8900
2240.0000;17984.9400
2241.0000;17962.1700
2242.0000;17947.2300
2243.0000;17943.7100
2244.0000;17953.9600
2245.0000;17966.5100
2246.0000;17977.7500
2247.0000;17982.2900
2248.0000;17974.4600
2249.0000;17947.5900
2250.0000;17903.7300
2251.0000;17876.1100
2252.0000;17886.3800
2253.0000;17913.2100
2254.0000;17926.9800
2255.0000;17939.7600
2256.0000;17962.9700
2257.0000;17982.9000
2258.0000;17995.2000
2259.0000;17989.1800
2260.0000;17958.8900
2261.0000;17909.1700
2262.0000;17870.3400
2263.0000;17860.8500
2264.0000;17870.9700
2265.0000;17892.9000
2266.0000;17906.3400
2267.0000;17877.3800
2268.0000;17839.7300
2269.0000;17837.7700
2270.0000;17864.5300
2271.0000;17891.3900
2272.0000;17910.8800
2273.0000;17916.4600
2274.0000;17903.2400
2275.0000;17878.1400
2276.0000;17847.4800
2277.0000;17834.2400
2278.0000;17858.6000
2279.0000;17885.2400
2280.0000;17870.7100
2281.0000;17836.1500
2282.0000;17805.4000
2283.0000;17787.8800
2284.0000;17793.3800
2285.0000;17817.6200
2286.0000;17821.4800
2287.0000;17797.1300
2288.0000;17771.7600
2289.0000;17759.6300
2290.0000;17751.4100
2291.0000;17739.3000
2292.0000;17744.3700
2293.0000;17781.8200
2294.0000;17822.9400
2295.0000;17829.2100
2296.0000;17809.4200
2297.0000;17801.3200
2298.0000;17804.6700
2299.0000;17813.3900
2300.0000;17824.8900
2301.0000;17829.4000
2302.0000;17821.9800
2303.0000;17812.5000
2304.0000;17808.7600
2305.0000;17800.0500
2306.0000;17777.4500
2307.0000;17753.0200
2308.0000;17732.4000
2309.0000;17721.0200
2310.0000;17712.3700
2311.0000;17710.1700
2312.0000;17707.8100
2313.0000;17704.0800
2314.0000;17690.6300
2315.0000;17668.3700
2316.0000;17655.6100
2317.0000;17662.6900
2318.0000;17678.8800
2319.0000;17693.1900
2320.0000;17703.8200
2321.0000;17707.4700
2322.0000;17703.8600
2323.0000;17701.9300
2324.0000;17698.8200
2325.0000;17691.8000
2326.0000;17685.0400
2327.0000;17687.0300
2328.0000;17697.8700
2329.0000;17702.8700
2330.0000;17696.8500
2331.0000;17696.8500
2332.0000;17710.8800
2333.0000;17733.2500
2334.0000;17762.8600
2335.0000;17784.7000
2336.0000;17790.7600
2337.0000;17782.4300
2338.0000;17776.1300
2339.0000;17775.8600
2340.0000;17797.9600
2341.0000;17830.9500
2342.0000;17839.5200
2343.0000;17815.4700
2344.0000;17783.3200
2345.0000;17755.5000
2346.0000;17737.4800
2347.0000;17734.7700
2348.0000;17739.7100
2349.0000;17738.4300
2350.0000;17741.2000
2351.0000;17756.6200
2352.0000;17767.1600
2353.0000;17748.3200
2354.0000;17719.1600
2355.0000;17717.7400
2356.0000;17741.5200
2357.0000;17755.0200
2358.0000;17755.1200
2359.0000;17766.1900
2360.0000;17790.6300
2361.0000;17797.0200
2362.0000;17770.6400
2363.0000;17752.6000
2364.0000;17775.9500
2365.0000;17797.6500
2366.0000;17775.2700
2367.0000;17745.3100
2368.0000;17750.3700
2369.0000;17771.2800
2370.0000;17766.4500
2371.0000;17749.0600
2372.0000;17758.8700
2373.0000;17786.4900
2374.0000;17778.6000
2375.0000;17730.0300
2376.0000;17698.4200
2377.0000;17707.5200
2378.0000;17720.7300
2379.0000;17718.0800
2380.0000;17711.7700
2381.0000;17704.1900
2382.0000;17703.5300
2383.0000;17718.6800
2384.0000;17738.6600
2385.0000;17748.0000
2386.0000;17747.8000
2387.0000;17755.1600
2388.0000;17756.3600
2389.0000;17727.2400
2390.0000;17672.1800
2391.0000;17625.6900
2392.0000;17603.1600
2393.0000;17593.4400
2394.0000;17595.6600
2395.0000;17599.7600
2396.0000;17594.5300
2397.0000;17594.0500
2398.0000;17606.5200
2399.0000;17617.9500
2400.0000;17612.6400
2401.0000;17606.6800
2402.0000;17622.1600
2403.0000;17647.8800
2404.0000;17668.1300
2405.0000;17675.5200
2406.0000;17668.8300
2407.0000;17649.0100
2408.0000;17637.8900
2409.0000;17638.7600
2410.0000;17633.7600
2411.0000;17619.6400
2412.0000;17611.4600
2413.0000;17615.1900
2414.0000;17621.9500
2415.0000;17623.3200
2416.0000;17631.3500
2417.0000;17653.5900
2418.0000;17680.4000
2419.0000;17706.1100
2420.0000;17719.9200
2421.0000;17721.1600
2422.0000;17711.0500
2423.0000;17716.6400
2424.0000;17722.7100
2425.0000;17692.2700
2426.0000;17636.5600
2427.0000;17612.2600
2428.0000;17633.5500
2429.0000;17662.7600
2430.0000;17685.6400
2431.0000;17696.3000
2432.0000;17686.9800
2433.0000;17666.5400
2434.0000;17645.0400
2435.0000;17632.0300
2436.0000;17640.1600
2437.0000;17649.4800
2438.0000;17631.2100
2439.0000;17604.4900
2440.0000;17591.2200
2441.0000;17588.3600
2442.0000;17580.9900
2443.0000;17574.7700
2444.0000;17571.6000
2445.0000;17572.0600
2446.0000;17570.6700
2447.0000;17567.0400
2448.0000;17560.1900
2449.0000;17552.1500
2450.0000;17551.2500
2451.0000;17560.7200
2452.0000;17565.8800
2453.0000;17559.0800
2454.0000;17540.8800
2455.0000;17511.0600
2456.0000;17484.7600
2457.0000;17473.5700
2458.0000;17474.6000
2459.0000;17471.9500
2460.0000;17472.8700
2461.0000;17478.3800
2462.0000;17478.2900
2463.0000;17449.9500
2464.0000;17414.9700
2465.0000;17416.0000
2466.0000;17448.5700
2467.0000;17459.2300
2468.0000;17446.3200
2469.0000;17447.7400
2470.0000;17466.9400
2471.0000;17470.0900
2472.0000;17447.7700
2473.0000;17429.2100
2474.0000;17428.5400
2475.0000;17420.8300
2476.0000;17391.1500
2477.0000;17376.6000
2478.0000;17402.4700
2479.0000;17433.7500
2480.0000;17432.9300
2481.0000;17420.2800
2482.0000;17418.6000
2483.0000;17426.1800
2484.0000;17448.6500
2485.0000;17471.8400
2486.0000;17474.7300
2487.0000;17459.9500
2488.0000;17453.6800
2489.0000;17450.9900
2490.0000;17434.1600
2491.0000;17406.9000
2492.0000;17383.9700
2493.0000;17371.2200
2494.0000;17351.3600
2495.0000;17326.4600
2496.0000;17320.3000
2497.0000;17340.6500
2498.0000;17346.9000
2499.0000;17316.3800
2500.0000;17301.9000
2501.0000;17335.2900
2502.0000;17381.4000
2503.0000;17414.1400
2504.0000;17422.0700
2505.0000;17398.2100
2506.0000;17363.7800
2507.0000;17358.7200
2508.0000;17371.3400
2509.0000;17383.2500
2510.0000;17387.4800
2511.0000;17369.8900
2512.0000;17338.9600
2513.0000;17318.3900
2514.0000;17309.1300
2515.0000;17290.1000
2516.0000;17268.5500
2517.0000;17256.6000
2518.0000;17259.3500
2519.0000;17267.0000
2520.0000;17277.6700
2521.0000;17293.8400
2522.0000;17311.0800
2523.0000;17319.9000
2524.0000;17314.7900
2525.0000;17298.8100
2526.0000;17277.2600
2527.0000;17264.2600
2528.0000;17270.9500
2529.0000;17285.7900
2530.0000;17297.5200
2531.0000;17301.5900
2532.0000;17292.3600
2533.0000;17277.7900
2534.0000;17272.3000
2535.0000;17267.4700
2536.0000;17251.2000
2537.0000;17232.0600
2538.0000;17217.4300
2539.0000;17207.5000
2540.0000;17188.8600
2541.0000;17173.3000
2542.0000;17170.8900
2543.0000;17178.0900
2544.0000;17170.3200
2545.0000;17150.0500
2546.0000;17129.6700
2547.0000;17114.0600
2548.0000;17098.6800
2549.0000;17087.6300
2550.0000;17083.7100
2551.0000;17088.4800
2552.0000;17095.1300
2553.0000;17099.7100
2554.0000;17096.7100
2555.0000;17083.8200
2556.0000;17078.4200
2557.0000;17090.0400
2558.0000;17086.7400
2559.0000;17049.9900
2560.0000;17027.1300
2561.0000;17052.7300
2562.0000;17084.0100
2563.0000;17081.5100
2564.0000;17065.8300
2565.0000;17055.3900
2566.0000;17044.8200
2567.0000;17032.8000
2568.0000;17020.6800
2569.0000;17000.9000
2570.0000;16986.3300
2571.0000;16986.4600
2572.0000;16993.7700
2573.0000;16983.8300
2574.0000;16967.3900
2575.0000;16960.7500
2576.0000;16964.2700
2577.0000;16970.1600
2578.0000;16975.8400
2579.0000;16971.6200
2580.0000;16962.2400
2581.0000;16966.8500
2582.0000;16985.4300
2583.0000;17006.2500
2584.0000;17019.9800
2585.0000;17015.1600
2586.0000;16991.4800
2587.0000;16982.2100
2588.0000;16993.9300
2589.0000;16991.2400
2590.0000;16967.1600
2591.0000;16946.3900
2592.0000;16940.0600
2593.0000;16927.1500
2594.0000;16902.1300
2595.0000;16896.7000
2596.0000;16924.3600
2597.0000;16949.2400
2598.0000;16947.3200
2599.0000;16949.4400
2600.0000;16974.8700
2601.0000;16995.0100
2602.0000;16991.4700
2603.0000;16985.1000
2604.0000;16998.4800
2605.0000;17007.9200
2606.0000;16997.2200
2607.0000;16978.1600
2608.0000;16964.6400
2609.0000;16955.5300
2610.0000;16945.9100
2611.0000;16942.5100
2612.0000;16944.1600
2613.0000;16947.9700
2614.0000;16941.9600
2615.0000;16935.6300
2616.0000;16945.4000
2617.0000;16952.8400
2618.0000;16926.1300
2619.0000;16888.7500
2620.0000;16881.6200
2621.0000;16898.4300
2622.0000;16906.4600
2623.0000;16907.1400
2624.0000;16902.5000
2625.0000;16897.1400
2626.0000;16906.3600
2627.0000;16922.8300
2628.0000;16923.2700
2629.0000;16908.4800
2630.0000;16895.6700
2631.0000;16891.0600
2632.0000;16900.8500
2633.0000;16921.9300
2634.0000;16928.6500
2635.0000;16920.7300
2636.0000;16928.2900
2637.0000;16950.2400
2638.0000;16963.3300
2639.0000;16957.8000
2640.0000;16931.8700
2641.0000;16891.3600
2642.0000;16856.4800
2643.0000;16841.0900
2644.0000;16839.3800
2645.0000;16850.9700
2646.0000;16868.7100
2647.0000;16883.9800
2648.0000;16887.9600
2649.0000;16875.2800
2650.0000;16856.0100
2651.0000;16837.2000
2652.0000;16822.3100
2653.0000;16815.4700
2654.0000;16824.2400
2655.0000;16849.1900
2656.0000;16853.1200
2657.0000;16817.6000
2658.0000;16793.5300
2659.0000;16811.9900
2660.0000;16819.2200
2661.0000;16784.7600
2662.0000;16758.0000
2663.0000;16769.1700
2664.0000;16784.3000
2665.0000;16779.8200
2666.0000;16768.7100
2667.0000;16756.2200
2668.0000;16748.4700
2669.0000;16751.6600
2670.0000;16749.4600
2671.0000;16727.7800
2672.0000;16703.4400
2673.0000;16687.8200
2674.0000;16684.7100
2675.0000;16694.8100
2676.0000;16706.1900
2677.0000;16704.7900
2678.0000;16692.6300
2679.0000;16669.0600
2680.0000;16661.7900
2681.0000;16700.4800
2682.0000;16733.5100
2683.0000;16713.0000
2684.0000;16672.3400
2685.0000;16651.0800
2686.0000;16635.0700
2687.0000;16609.9100
2688.0000;16596.3200
2689.0000;16599.7200
2690.0000;16615.5400
2691.0000;16627.0800
2692.0000;16637.8100
2693.0000;16652.4600
2694.0000;16655.1700
2695.0000;16635.6200
2696.0000;16611.5900
2697.0000;16609.0400
2698.0000;16614.1000
2699.0000;16610.8300
2700.0000;16594.6600
2701.0000;16554.1900
2702.0000;16517.2300
2703.0000;16511.5900
2704.0000;16525.0500
2705.0000;16525.3800
2706.0000;16521.7400
2707.0000;16511.1700
2708.0000;16508.3800
2709.0000;16530.6500
2710.0000;16556.7200
2711.0000;16558.4100
2712.0000;16553.4100
2713.0000;16572.0400
2714.0000;16588.6800
2715.0000;16577.6800
2716.0000;16566.2700
2717.0000;16592.6000
2718.0000;16625.1600
2719.0000;16631.7700
2720.0000;16621.3400
2721.0000;16610.5500
2722.0000;16606.0000
2723.0000;16628.7200
2724.0000;16642.9700
2725.0000;16602.7000
2726.0000;16555.2600
2727.0000;16553.9800
2728.0000;16570.3600
2729.0000;16561.3500
2730.0000;16550.6200
2731.0000;16556.8300
2732.0000;16561.0500
2733.0000;16542.4500
2734.0000;16517.8300
2735.0000;16504.4400
2736.0000;16495.2100
2737.0000;16476.5000
2738.0000;16461.2300
2739.0000;16453.7300
2740.0000;16446.5400
2741.0000;16423.6200
2742.0000;16403.7700
2743.0000;16396.2900
2744.0000;16399.4400
2745.0000;16403.5400
2746.0000;16410.4800
2747.0000;16415.4200
2748.0000;16423.9200
2749.0000;16442.4400
2750.0000;16453.4400
2751.0000;16445.1900
2752.0000;16426.5000
2753.0000;16408.5200
2754.0000;16394.3900
2755.0000;16386.6500
2756.0000;16385.0300
2757.0000;16384.0900
2758.0000;16391.8300
2759.0000;16410.1600
2760.0000;16420.6500
2761.0000;16409.1600
2762.0000;16398.0600
2763.0000;16404.4000
2764.0000;16406.0800
2765.0000;16391.2800
2766.0000;16380.9500
2767.0000;16387.0200
2768.0000;16396.4400
2769.0000;16401.0400
2770.0000;16382.1500
2771.0000;16334.0100
2772.0000;16301.9800
2773.0000;16312.3100
2774.0000;16323.3800
2775.0000;16315.8200
2776.0000;16315.4600
2777.0000;16327.2700
2778.0000;16316.3100
2779.0000;16274.6900
2780.0000;16255.7100
2781.0000;16276.1800
2782.0000;16285.9500
2783.0000;16269.7400
2784.0000;16248.7400
2785.0000;16233.0100
2786.0000;16244.8500
2787.0000;16280.1400
2788.0000;16280.9400
2789.0000;16237.8900
2790.0000;16204.9700
2791.0000;16195.8800
2792.0000;16190.6100
2793.0000;16189.9600
2794.0000;16182.2800
2795.0000;16176.2300
2796.0000;16198.4200
2797.0000;16241.6200
2798.0000;16270.4300
2799.0000;16276.9500
2800.0000;16284.3700
2801.0000;16283.1400
2802.0000;16262.6200
2803.0000;16239.1400
2804.0000;16256.0100
2805.0000;16290.7900
2806.0000;16280.4600
2807.0000;16248.6900
2808.0000;16251.6300
2809.0000;16272.2600
2810.0000;16279.6300
2811.0000;16273.1900
2812.0000;16250.1300
2813.0000;16229.1700
2814.0000;16238.3700
2815.0000;16258.6900
2816.0000;16258.0200
2817.0000;16248.6500
2818.0000;16241.9200
2819.0000;16241.8300
2820.0000;16253.4900
2821.0000;16269.6700
2822.0000;16282.7500
2823.0000;16279.8400
2824.0000;16252.4900
2825.0000;16231.5200
2826.0000;16242.1200
2827.0000;16248.6800
2828.0000;16228.7300
2829.0000;16215.9900
2830.0000;16226.9100
2831.0000;16254.4500
2832.0000;16288.9100
2833.0000;16299.3800
2834.0000;16272.9600
2835.0000;16251.2000
2836.0000;16253.1000
2837.0000;16278.5400
2838.0000;16318.7500
2839.0000;16332.2000
2840.0000;16309.9200
2841.0000;16299.2500
2842.0000;16304.5600
2843.0000;16298.7600
2844.0000;16281.1800
2845.0000;16254.3000
2846.0000;16235.4000
2847.0000;16254.6800
2848.0000;16295.5100
2849.0000;16294.0300
2850.0000;16261.9300
2851.0000;16239.7100
2852.0000;16235.4100
2853.0000;16257.3400
2854.0000;16280.9300
2855.0000;16253.8900
2856.0000;16217.0000
2857.0000;16227.6000
2858.0000;16256.8800
2859.0000;16270.5000
2860.0000;16266.8300
2861.0000;16241.0400
2862.0000;16224.9200
2863.0000;16248.1300
2864.0000;16271.2900
2865.0000;16262.7600
2866.0000;16250.8700
2867.0000;16252.4000
2868.0000;16253.1600
2869.0000;16247.9300
2870.0000;16227.3800
2871.0000;16192.4300
2872.0000;16170.7400
2873.0000;16173.3700
2874.0000;16177.6700
2875.0000;16178.6400
2876.0000;16177.9400
2877.0000;16174.8100
2878.0000;16168.2800
2879.0000;16161.8500
2880.0000;16162.0900
2881.0000;16169.6500
2882.0000;16174.8800
2883.0000;16183.3400
2884.0000;16213.3200
2885.0000;16240.9900
2886.0000;16231.6700
2887.0000;16207.3400
2888.0000;16216.4600
2889.0000;16237.5400
2890.0000;16248.2600
2891.0000;16251.0200
2892.0000;16249.4000
2893.0000;16245.7900
2894.0000;16248.3400
2895.0000;16236.7500
2896.0000;16199.9600
2897.0000;16175.4400
2898.0000;16184.6800
2899.0000;16207.0700
2900.0000;16230.5600
2901.0000;16243.6900
2902.0000;16239.4400
2903.0000;16240.7000
2904.0000;16245.8000
2905.0000;16220.8500
2906.0000;16174.8300
2907.0000;16149.4600
2908.0000;16156.9000
2909.0000;16177.4900
2910.0000;16200.8400
2911.0000;16199.5400
2912.0000;16179.5100
2913.0000;16163.3200
2914.0000;16160.3500
2915.0000;16180.1400
2916.0000;16209.2500
2917.0000;16226.7100
2918.0000;16230.8800
2919.0000;16226.8900
2920.0000;16211.1300
2921.0000;16186.9800
2922.0000;16186.3100
2923.0000;16227.5600
2924.0000;16234.8300
2925.0000;16176.0000
2926.0000;16135.5300
2927.0000;16143.3600
2928.0000;16149.3900
2929.0000;16142.7200
2930.0000;16122.8200
2931.0000;16095.5900
2932.0000;16078.0000
2933.0000;16074.4000
2934.0000;16066.0000
2935.0000;16058.2400
2936.0000;16051.8000
2937.0000;16049.2500
2938.0000;16044.1400
2939.0000;16048.0100
2940.0000;16073.9000
2941.0000;16090.6900
2942.0000;16067.3100
2943.0000;16037.8200
2944.0000;16031.5300
2945.0000;16039.5000
2946.0000;16055.7700
2947.0000;16068.8700
2948.0000;16069.6000
2949.0000;16064.0300
2950.0000;16054.5700
2951.0000;16045.4700
2952.0000;16040.3000
2953.0000;16041.8400
2954.0000;16044.6200
2955.0000;16024.8100
2956.0000;15995.9600
2957.0000;15986.4600
2958.0000;15995.3900
2959.0000;16004.6000
2960.0000;16009.5800
2961.0000;16003.2300
2962.0000;15979.3000
2963.0000;15935.3800
2964.0000;15907.8200
2965.0000;15925.4800
2966.0000;15936.8400
2967.0000;15909.9400
2968.0000;15870.5100
2969.0000;15835.8500
2970.0000;15818.9300
2971.0000;15829.0700
2972.0000;15841.5700
2973.0000;15854.8300
2974.0000;15879.0200
2975.0000;15904.1400
2976.0000;15912.9900
2977.0000;15908.6200
2978.0000;15920.1200
2979.0000;15928.4600
2980.0000;15913.8400
2981.0000;15895.7700
2982.0000;15897.7300
2983.0000;15907.9100
2984.0000;15916.1400
2985.0000;15921.2600
2986.0000;15920.9200
2987.0000;15933.3700
2988.0000;15961.7400
2989.0000;15974.7000
2990.0000;15963.5500
2991.0000;15954.0900
2992.0000;15949.6800
2993.0000;15945.0300
2994.0000;15942.1000
2995.0000;15940.7200
2996.0000;15939.6100
2997.0000;15935.8800
2998.0000;15925.8000
2999.0000;15899.6000
3000.0000;15887.9300
3001.0000;15914.3400
3002.0000;15944.9000
3003.0000;15952.8600
3004.0000;15939.1500
3005.0000;15906.2700
3006.0000;15873.5600
3007.0000;15856.4000
3008.0000;15856.7900
3009.0000;15875.2300
3010.0000;15888.3200
3011.0000;15896.3100
3012.0000;15916.2000
3013.0000;15926.9600
3014.0000;15900.0500
3015.0000;15872.1000
3016.0000;15895.2700
3017.0000;15920.2300
3018.0000;15903.3300
3019.0000;15878.8200
3020.0000;15867.8700
3021.0000;15865.2300
3022.0000;15870.1700
3023.0000;15868.8700
3024.0000;15859.3200
3025.0000;15850.8600
3026.0000;15848.8700
3027.0000;15860.1700
3028.0000;15873.7200
3029.0000;15861.8700
3030.0000;15840.5400
3031.0000;15843.3400
3032.0000;15835.6800
3033.0000;15782.0700
3034.0000;15736.3000
3035.0000;15732.2300
3036.0000;15738.2500
3037.0000;15737.9500
3038.0000;15736.6700
3039.0000;15733.6600
3040.0000;15726.7900
3041.0000;15722.1500
3042.0000;15735.5800
3043.0000;15758.0100
3044.0000;15765.5100
3045.0000;15755.3500
3046.0000;15735.0700
3047.0000;15713.0200
3048.0000;15701.8000
3049.0000;15697.8500
3050.0000;15695.7800
3051.0000;15683.7300
3052.0000;15657.8500
3053.0000;15642.5900
3054.0000;15645.6800
3055.0000;15652.4500
3056.0000;15656.9900
3057.0000;15646.0000
3058.0000;15628.7600
3059.0000;15623.6300
3060.0000;15634.0200
3061.0000;15659.1400
3062.0000;15671.2200
3063.0000;15643.2200
3064.0000;15625.4800
3065.0000;15649.1800
3066.0000;15656.3900
3067.0000;15628.8400
3068.0000;15610.6000
3069.0000;15610.0800
3070.0000;15605.5200
3071.0000;15604.5400
3072.0000;15623.5000
3073.0000;15643.7000
3074.0000;15630.8100
3075.0000;15616.8700
3076.0000;15640.6700
3077.0000;15665.5200
3078.0000;15667.9700
3079.0000;15652.0900
3080.0000;15625.1300
3081.0000;15624.1400
3082.0000;15651.3800
3083.0000;15651.0400
3084.0000;15625.1200
3085.0000;15606.1900
3086.0000;15605.6800
3087.0000;15632.6000
3088.0000;15662.4700
3089.0000;15660.7800
3090.0000;15645.5800
3091.0000;15634.2700
3092.0000;15622.2000
3093.0000;15613.1100
3094.0000;15616.4500
3095.0000;15631.5400
3096.0000;15641.8600
3097.0000;15642.2600
3098.0000;15638.2400
3099.0000;15626.8700
3100.0000;15605.5500
3101.0000;15591.8100
3102.0000;15599.1800
3103.0000;15621.4900
3104.0000;15647.8100
3105.0000;15662.7000
3106.0000;15658.0900
3107.0000;15662.4700
3108.0000;15674.9100
3109.0000;15667.9300
3110.0000;15653.8900
3111.0000;15674.7700
3112.0000;15699.1200
3113.0000;15680.8800
3114.0000;15650.0100
3115.0000;15639.2600
3116.0000;15619.7400
3117.0000;15583.9700
3118.0000;15575.6400
3119.0000;15603.9700
3120.0000;15622.4300
3121.0000;15620.1500
3122.0000;15603.8700
3123.0000;15582.7400
3124.0000;15578.5300
3125.0000;15580.2200
3126.0000;15568.9400
3127.0000;15561.3700
3128.0000;15565.6000
3129.0000;15572.8200
3130.0000;15576.7700
3131.0000;15573.6000
3132.0000;15558.9500
3133.0000;15527.5800
3134.0000;15493.3900
3135.0000;15475.1100
3136.0000;15473.9400
3137.0000;15471.0900
3138.0000;15470.2300
3139.0000;15466.1500
3140.0000;15474.5600
3141.0000;15495.6800
3142.0000;15487.7200
3143.0000;15447.4800
3144.0000;15412.6200
3145.0000;15398.0300
3146.0000;15402.6900
3147.0000;15413.3600
3148.0000;15393.5100
3149.0000;15376.3100
3150.0000;15385.4800
3151.0000;15389.7500
3152.0000;15376.5900
3153.0000;15378.4800
3154.0000;15393.6200
3155.0000;15377.6400
3156.0000;15341.5400
3157.0000;15320.5100
3158.0000;15317.5900
3159.0000;15320.8600
3160.0000;15330.9600
3161.0000;15338.9900
3162.0000;15352.8600
3163.0000;15371.6100
3164.0000;15380.7000
3165.0000;15374.1300
3166.0000;15359.9400
3167.0000;15342.0800
3168.0000;15325.5700
3169.0000;15319.4200
3170.0000;15325.3900
3171.0000;15335.1600
3172.0000;15337.5200
3173.0000;15338.5900
3174.0000;15340.3500
3175.0000;15349.8500
3176.0000;15359.8900
3177.0000;15350.1100
3178.0000;15323.4200
3179.0000;15291.4800
3180.0000;15272.1200
3181.0000;15275.5000
3182.0000;15294.6700
3183.0000;15317.0100
3184.0000;15343.0300
3185.0000;15365.7000
3186.0000;15389.3500
3187.0000;15401.6000
3188.0000;15395.1300
3189.0000;15378.6800
3190.0000;15379.2200
3191.0000;15379.8600
3192.0000;15368.6600
3193.0000;15365.2400
3194.0000;15374.7900
3195.0000;15370.2600
3196.0000;15352.4800
3197.0000;15348.5600
3198.0000;15352.3500
3199.0000;15343.9100
3200.0000;15323.9100
3201.0000;15294.3700
3202.0000;15267.6700
3203.0000;15253.4700
3204.0000;15242.1400
3205.0000;15234.6700
3206.0000;15234.6900
3207.0000;15236.1800
3208.0000;15216.5400
3209.0000;15194.3700
3210.0000;15191.7900
3211.0000;15194.2700
3212.0000;15188.9700
3213.0000;15184.4900
3214.0000;15186.5800
3215.0000;15216.1200
3216.0000;15253.5600
3217.0000;15249.3500
3218.0000;15215.6700
3219.0000;15193.6600
3220.0000;15186.9100
3221.0000;15200.6400
3222.0000;15205.3900
3223.0000;15189.7200
3224.0000;15189.9000
3225.0000;15197.7600
3226.0000;15162.5900
3227.0000;15117.8200
3228.0000;15120.5000
3229.0000;15129.4800
3230.0000;15102.9600
3231.0000;15066.2900
3232.0000;15035.7700
3233.0000;15041.0400
3234.0000;15074.8500
3235.0000;15063.5500
3236.0000;15041.8900
3237.0000;15088.8000
3238.0000;15121.3400
3239.0000;15070.5900
3240.0000;15022.1100
3241.0000;15021.0900
3242.0000;15030.9500
3243.0000;15041.8100
3244.0000;15030.2400
3245.0000;15015.1300
3246.0000;15035.2100
3247.0000;15058.5100
3248.0000;15057.4200
3249.0000;15041.5500
3250.0000;15020.1000
3251.0000;15010.0700
3252.0000;15018.2600
3253.0000;15034.7500
3254.0000;15046.5400
3255.0000;15038.5100
3256.0000;15009.2300
3257.0000;14966.6900
3258.0000;14951.9000
3259.0000;14979.1100
3260.0000;15000.1200
3261.0000;15003.3700
3262.0000;14995.1500
3263.0000;14978.0900
3264.0000;14962.0200
3265.0000;14961.2300
3266.0000;14982.2000
3267.0000;14994.5700
3268.0000;14991.1200
3269.0000;15006.0200
3270.0000;15026.5300
3271.0000;15018.7000
3272.0000;15005.6800
3273.0000;15021.9400
3274.0000;15026.0300
3275.0000;15000.0300
3276.0000;14989.1600
3277.0000;14999.8200
3278.0000;14997.4900
3279.0000;14985.8000
3280.0000;14975.5000
3281.0000;14966.5100
3282.0000;14958.1700
3283.0000;14961.7300
3284.0000;14976.0400
3285.0000;14970.3100
3286.0000;14951.8900
3287.0000;14965.2600
3288.0000;14979.4700
3289.0000;14948.4600
3290.0000;14914.1900
3291.0000;14904.6700
3292.0000;14891.5700
3293.0000;14874.9200
3294.0000;14867.8200
3295.0000;14874.9000
3296.0000;14895.0900
3297.0000;14895.9000
3298.0000;14847.3900
3299.0000;14803.8000
3300.0000;14796.9400
3301.0000;14826.3400
3302.0000;14870.7900
3303.0000;14869.4100
3304.0000;14837.7700
3305.0000;14818.9500
3306.0000;14805.6000
3307.0000;14798.8600
3308.0000;14800.7600
3309.0000;14807.0200
3310.0000;14796.8400
3311.0000;14780.7000
3312.0000;14784.9900
3313.0000;14780.7800
3314.0000;14743.9800
3315.0000;14726.8800
3316.0000;14744.7100
3317.0000;14748.0200
3318.0000;14731.9400
3319.0000;14704.6900
3320.0000;14681.7300
3321.0000;14680.2700
3322.0000;14681.9800
3323.0000;14675.7700
3324.0000;14672.8700
3325.0000;14674.8700
3326.0000;14677.6100
3327.0000;14680.5200
3328.0000;14681.7500
3329.0000;14683.9000
3330.0000;14688.3200
3331.0000;14689.5000
3332.0000;14685.3600
3333.0000;14674.5900
3334.0000;14667.6200
3335.0000;14679.4700
3336.0000;14694.8300
3337.0000;14699.3500
3338.0000;14700.1600
3339.0000;14701.1000
3340.0000;14715.7800
3341.0000;14731.7700
3342.0000;14729.8700
3343.0000;14712.3800
3344.0000;14689.5900
3345.0000;14675.9400
3346.0000;14679.4500
3347.0000;14683.5100
3348.0000;14687.9400
3349.0000;14693.6500
3350.0000;14698.1600
3351.0000;14699.6300
3352.0000;14707.6000
3353.0000;14722.4200
3354.0000;14725.8900
3355.0000;14716.0200
3356.0000;14703.4500
3357.0000;14697.9400
3358.0000;14709.0400
3359.0000;14722.7500
3360.0000;14729.2400
3361.0000;14731.8200
3362.0000;14730.1500
3363.0000;14729.2700
3364.0000;14731.0100
3365.0000;14738.1800
3366.0000;14743.5600
3367.0000;14743.5400
3368.0000;14740.4500
3369.0000;14741.7600
3370.0000;14772.2500
3371.0000;14786.2800
3372.0000;14734.4800
3373.0000;14698.4100
3374.0000;14714.2200
3375.0000;14712.0800
3376.0000;14695.4000
3377.0000;14699.5900
3378.0000;14712.3000
3379.0000;14717.9500
3380.0000;14702.7900
3381.0000;14666.7800
3382.0000;14637.3800
3383.0000;14627.4700
3384.0000;14630.8300
3385.0000;14637.7200
3386.0000;14627.0800
3387.0000;14625.6500
3388.0000;14641.5600
3389.0000;14660.0000
3390.0000;14670.1500
3391.0000;14662.8200
3392.0000;14647.5200
3393.0000;14640.0400
3394.0000;14639.6200
3395.0000;14643.0100
3396.0000;14629.8300
3397.0000;14605.0200
3398.0000;14582.7700
3399.0000;14569.3600
3400.0000;14567.2200
3401.0000;14566.7600
3402.0000;14561.5500
3403.0000;14537.9400
3404.0000;14516.3700
3405.0000;14527.2200
3406.0000;14536.2100
3407.0000;14519.7800
3408.0000;14529.6700
3409.0000;14565.8700
3410.0000;14588.8200
3411.0000;14586.6800
3412.0000;14557.5500
3413.0000;14548.3700
3414.0000;14581.7800
3415.0000;14605.7600
3416.0000;14597.5800
3417.0000;14544.9000
3418.0000;14497.8000
3419.0000;14510.9700
3420.0000;14511.0100
3421.0000;14481.5500
3422.0000;14514.1200
3423.0000;14572.0100
3424.0000;14560.0700
3425.0000;14523.7300
3426.0000;14509.5600
3427.0000;14520.6500
3428.0000;14549.5000
3429.0000;14550.4700
3430.0000;14528.7900
3431.0000;14505.6900
3432.0000;14501.7100
3433.0000;14524.5800
3434.0000;14518.5800
3435.0000;14491.2500
3436.0000;14497.9700
3437.0000;14514.5800
3438.0000;14512.0400
3439.0000;14508.4800
3440.0000;14504.8700
3441.0000;14476.6200
3442.0000;14440.8100
3443.0000;14427.0300
3444.0000;14426.5200
3445.0000;14426.7400
3446.0000;14432.5700
3447.0000;14439.3900
3448.0000;14436.0800
3449.0000;14429.2800
3450.0000;14430.4100
3451.0000;14427.6700
3452.0000;14420.2600
3453.0000;14428.3800
3454.0000;14448.1000
3455.0000;14467.3400
3456.0000;14466.5200
3457.0000;14438.0700
3458.0000;14406.0100
3459.0000;14385.6000
3460.0000;14373.7700
3461.0000;14378.6600
3462.0000;14395.3400
3463.0000;14409.2900
3464.0000;14409.0000
3465.0000;14398.5900
3466.0000;14382.9000
3467.0000;14368.3100
3468.0000;14372.2700
3469.0000;14400.5000
3470.0000;14417.2400
3471.0000;14410.9600
3472.0000;14396.6100
3473.0000;14382.5900
3474.0000;14383.6700
3475.0000;14364.1700
3476.0000;14318.7400
3477.0000;14299.1100
3478.0000;14303.1900
3479.0000;14291.2000
3480.0000;14279.3100
3481.0000;14272.2600
3482.0000;14262.6600
3483.0000;14255.2800
3484.0000;14260.6800
3485.0000;14262.5400
3486.0000;14241.3400
3487.0000;14247.8000
3488.0000;14282.5200
3489.0000;14266.6900
3490.0000;14233.1100
3491.0000;14252.3800
3492.0000;14272.7100
3493.0000;14269.1500
3494.0000;14277.8800
3495.0000;14291.0000
3496.0000;14285.3800
3497.0000;14275.8400
3498.0000;14276.0100
3499.0000;14271.6200
3500.0000;14258.6000
3501.0000;14230.4300
3502.0000;14211.1400
3503.0000;14221.5500
3504.0000;14229.5600
3505.0000;14219.4400
3506.0000;14195.1800
3507.0000;14168.3300
3508.0000;14154.8300
3509.0000;14146.3900
3510.0000;14135.9200
3511.0000;14109.6300
3512.0000;14086.6900
3513.0000;14097.4800
3514.0000;14118.0900
3515.0000;14123.0500
3516.0000;14120.2700
3517.0000;14120.5500
3518.0000;14157.9400
3519.0000;14187.4300
3520.0000;14167.5600
3521.0000;14147.2300
3522.0000;14147.7800
3523.0000;14176.2100
3524.0000;14205.3800
3525.0000;14198.2900
3526.0000;14187.2300
3527.0000;14183.1500
3528.0000;14168.9900
3529.0000;14144.6400
3530.0000;14109.3600
3531.0000;14085.4500
3532.0000;14083.4900
3533.0000;14082.7200
3534.0000;14087.9000
3535.0000;14103.5300
3536.0000;14120.5500
3537.0000;14129.9100
3538.0000;14132.6000
3539.0000;14130.0000
3540.0000;14134.6800
3541.0000;14136.0000
3542.0000;14127.3500
3543.0000;14095.4600
3544.0000;14059.7100
3545.0000;14071.3700
3546.0000;14089.3200
3547.0000;14067.4400
3548.0000;14031.2400
3549.0000;13998.9600
3550.0000;13982.4700
3551.0000;13981.2900
3552.0000;13979.5500
3553.0000;13970.3000
3554.0000;13949.8600
3555.0000;13918.8100
3556.0000;13892.1700
3557.0000;13883.0800
3558.0000;13881.8100
3559.0000;13883.3800
3560.0000;13882.5600
3561.0000;13887.9400
3562.0000;13909.7900
3563.0000;13906.6600
3564.0000;13872.3000
3565.0000;13859.0500
3566.0000;13863.3400
3567.0000;13863.2500
3568.0000;13846.2800
3569.0000;13816.8100
3570.0000;13826.7600
3571.0000;13866.4300
3572.0000;13898.3800
3573.0000;13909.1100
3574.0000;13889.8400
3575.0000;13863.5000
3576.0000;13834.4700
3577.0000;13804.3200
3578.0000;13776.1000
3579.0000;13754.7100
3580.0000;13739.0300
3581.0000;13740.9400
3582.0000;13763.1300
3583.0000;13767.4600
3584.0000;13738.5500
3585.0000;13740.8100
3586.0000;13755.4800
3587.0000;13728.9000
3588.0000;13712.9300
3589.0000;13728.6400
3590.0000;13717.2000
3591.0000;13713.8300
3592.0000;13783.7500
3593.0000;13811.0400
3594.0000;13757.5400
3595.0000;13781.1100
3596.0000;13835.4800
3597.0000;13809.1700
3598.0000;13794.7700
3599.0000;13825.7600
3600.0000;13834.7500
3601.0000;13826.8000
3602.0000;13827.2900
3603.0000;13820.2900
3604.0000;13809.1500
3605.0000;13831.4200
3606.0000;13852.3300
3607.0000;13815.5700
3608.0000;13799.4500
3609.0000;13830.7000
3610.0000;13855.4600
3611.0000;13858.2000
3612.0000;13830.4500
3613.0000;13814.4200
3614.0000;13824.3300
3615.0000;13824.0300
3616.0000;13819.6400
3617.0000;13817.6600
3618.0000;13813.7900
3619.0000;13811.2400
3620.0000;13820.5700
3621.0000;13831.4100
3622.0000;13832.0100
3623.0000;13826.6200
3624.0000;13815.9500
3625.0000;13796.0400
3626.0000;13793.8200
3627.0000;13823.3700
3628.0000;13832.8100
3629.0000;13823.3000
3630.0000;13842.7000
3631.0000;13851.5000
3632.0000;13830.5100
3633.0000;13822.1900
3634.0000;13825.7700
3635.0000;13819.4700
3636.0000;13809.3400
3637.0000;13798.6200
3638.0000;13784.2800
3639.0000;13771.7000
3640.0000;13762.8700
3641.0000;13764.1400
3642.0000;13769.7700
3643.0000;13745.1900
3644.0000;13714.1500
3645.0000;13711.3900
3646.0000;13718.7100
3647.0000;13726.3200
3648.0000;13725.6200
3649.0000;13717.9800
3650.0000;13708.7900
3651.0000;13709.4300
3652.0000;13713.6900
3653.0000;13691.2900
3654.0000;13670.0600
3655.0000;13670.0500
3656.0000;13653.6600
3657.0000;13623.6800
3658.0000;13596.2400
3659.0000;13566.1300
3660.0000;13537.6900
3661.0000;13533.4900
3662.0000;13548.0300
3663.0000;13552.4200
3664.0000;13546.1500
3665.0000;13532.0600
3666.0000;13526.6300
3667.0000;13531.7300
3668.0000;13542.7900
3669.0000;13536.9400
3670.0000;13516.2700
3671.0000;13512.9800
3672.0000;13515.4500
3673.0000;13512.2600
3674.0000;13501.5600
3675.0000;13487.2600
3676.0000;13476.8300
3677.0000;13463.0000
3678.0000;13444.2000
3679.0000;13420.6700
3680.0000;13403.5100
3681.0000;13399.8500
3682.0000;13391.5900
3683.0000;13377.0400
3684.0000;13370.2900
3685.0000;13374.1600
3686.0000;13384.5700
3687.0000;13393.1700
3688.0000;13395.1700
3689.0000;13390.2800
3690.0000;13398.8100
3691.0000;13428.0700
3692.0000;13448.6500
3693.0000;13461.0900
3694.0000;13478.6700
3695.0000;13483.6200
3696.0000;13470.5700
3697.0000;13445.7300
3698.0000;13432.8000
3699.0000;13449.1300
3700.0000;13447.6500
3701.0000;13437.0600
3702.0000;13463.6600
3703.0000;13475.5400
3704.0000;13450.9100
3705.0000;13450.2900
3706.0000;13457.5000
3707.0000;13441.9500
3708.0000;13418.4000
3709.0000;13402.0500
3710.0000;13409.5300
3711.0000;13418.7900
3712.0000;13407.4300
3713.0000;13409.4500
3714.0000;13415.8700
3715.0000;13401.0600
3716.0000;13380.0600
3717.0000;13363.4700
3718.0000;13343.3000
3719.0000;13334.9700
3720.0000;13345.3800
3721.0000;13336.2300
3722.0000;13311.7400
3723.0000;13309.2600
3724.0000;13308.0200
3725.0000;13296.7800
3726.0000;13294.6400
3727.0000;13290.5700
3728.0000;13266.2100
3729.0000;13261.4100
3730.0000;13278.3300
3731.0000;13271.4800
3732.0000;13263.0700
3733.0000;13267.5800
3734.0000;13255.9200
3735.0000;13233.0500
3736.0000;13213.9200
3737.0000;13210.9100
3738.0000;13221.3800
3739.0000;13209.8300
3740.0000;13190.5000
3741.0000;13179.8200
3742.0000;13188.6700
3743.0000;13205.9200
3744.0000;13202.3600
3745.0000;13195.6100
3746.0000;13196.9900
3747.0000;13215.3700
3748.0000;13224.6700
3749.0000;13202.3700
3750.0000;13182.9100
3751.0000;13174.8000
3752.0000;13172.0000
3753.0000;13162.1900
3754.0000;13143.7300
3755.0000;13134.1200
3756.0000;13135.3900
3757.0000;13141.3900
3758.0000;13137.6600
3759.0000;13135.6400
3760.0000;13166.5600
3761.0000;13170.6200
3762.0000;13135.4200
3763.0000;13138.6300
3764.0000;13160.3000
3765.0000;13168.9100
3766.0000;13160.1900
3767.0000;13149.9800
3768.0000;13173.9100
3769.0000;13197.1500
3770.0000;13199.5700
3771.0000;13189.1000
3772.0000;13186.7600
3773.0000;13212.8100
3774.0000;13244.0200
3775.0000;13265.1600
3776.0000;13270.3800
3777.0000;13273.7500
3778.0000;13279.4200
3779.0000;13276.1200
3780.0000;13268.9800
3781.0000;13263.5000
3782.0000;13242.0400
3783.0000;13229.5700
3784.0000;13259.7900
3785.0000;13261.1000
3786.0000;13231.1200
3787.0000;13250.7600
3788.0000;13256.8600
3789.0000;13218.8800
3790.0000;13201.6800
3791.0000;13206.1700
3792.0000;13215.6600
3793.0000;13233.1100
3794.0000;13243.0100
3795.0000;13224.7100
3796.0000;13195.4600
3797.0000;13173.3600
3798.0000;13158.0800
3799.0000;13150.7900
3800.0000;13143.0700
3801.0000;13109.4400
3802.0000;13078.4000
3803.0000;13096.5000
3804.0000;13111.8200
3805.0000;13105.9800
3806.0000;13108.9600
3807.0000;13097.5800
3808.0000;13065.9000
3809.0000;13047.2900
3810.0000;13045.3200
3811.0000;13050.0900
3812.0000;13064.8800
3813.0000;13070.6000
3814.0000;13037.3800
3815.0000;12991.4900
3816.0000;12957.1300
3817.0000;12938.8200
3818.0000;12925.4500
3819.0000;12900.1800
3820.0000;12875.5000
3821.0000;12870.3300
3822.0000;12894.9200
3823.0000;12905.8100
3824.0000;12888.5400
3825.0000;12857.9500
3826.0000;12839.5400
3827.0000;12847.5200
3828.0000;12862.4100
3829.0000;12863.0800
3830.0000;12835.2500
3831.0000;12819.2700
3832.0000;12817.5500
3833.0000;12816.0100
3834.0000;12790.4600
3835.0000;12752.9400
3836.0000;12743.1700
3837.0000;12733.6600
3838.0000;12714.1400
3839.0000;12707.3200
3840.0000;12710.5900
3841.0000;12716.2400
3842.0000;12732.6200
3843.0000;12754.1200
3844.0000;12771.4300
3845.0000;12781.2700
3846.0000;12782.3300
3847.0000;12784.6300
3848.0000;12792.1300
3849.0000;12803.7700
3850.0000;12811.1900
3851.0000;12801.7500
3852.0000;12776.6500
3853.0000;12764.0200
3854.0000;12773.4200
3855.0000;12800.2000
3856.0000;12828.7700
3857.0000;12845.1900
3858.0000;12846.5000
3859.0000;12850.4700
3860.0000;12852.9000
3861.0000;12819.3000
3862.0000;12798.8700
3863.0000;12812.7500
3864.0000;12796.4800
3865.0000;12779.8800
3866.0000;12786.9300
3867.0000;12785.9300
3868.0000;12769.3800
3869.0000;12739.0400
3870.0000;12729.8900
3871.0000;12743.8200
3872.0000;12751.4500
3873.0000;12751.1500
3874.0000;12740.5200
3875.0000;12725.5500
3876.0000;12701.1300
3877.0000;12676.1300
3878.0000;12683.1800
3879.0000;12691.8300
3880.0000;12669.9500
3881.0000;12654.1500
3882.0000;12647.3100
3883.0000;12642.9600
3884.0000;12614.5600
3885.0000;12593.5500
3886.0000;12640.3500
3887.0000;12660.7700
3888.0000;12627.7000
3889.0000;12594.3000
3890.0000;12568.8800
3891.0000;12558.4600
3892.0000;12532.2300
3893.0000;12524.0900
3894.0000;12544.6700
3895.0000;12537.6800
3896.0000;12520.2000
3897.0000;12517.1600
3898.0000;12508.2900
3899.0000;12502.9400
3900.0000;12513.0000
3901.0000;12513.1600
3902.0000;12496.0200
3903.0000;12467.1300
3904.0000;12461.3900
3905.0000;12476.4200
3906.0000;12454.5000
3907.0000;12444.9200
3908.0000;12460.4400
3909.0000;12446.7000
3910.0000;12428.1600
3911.0000;12422.3300
3912.0000;12407.7500
3913.0000;12391.6600
3914.0000;12385.6600
3915.0000;12432.0300
3916.0000;12482.1800
3917.0000;12466.9100
3918.0000;12449.8900
3919.0000;12438.0600
3920.0000;12421.5500
3921.0000;12427.1300
3922.0000;12446.2700
3923.0000;12441.9000
3924.0000;12428.2800
3925.0000;12422.4200
3926.0000;12447.7600
3927.0000;12470.0800
3928.0000;12468.2000
3929.0000;12462.4700
3930.0000;12457.2600
3931.0000;12460.3800
3932.0000;12475.4900
3933.0000;12481.3200
3934.0000;12464.6700
3935.0000;12458.2900
3936.0000;12450.0000
3937.0000;12424.6800
3938.0000;12391.9200
3939.0000;12371.0800
3940.0000;12376.2800
3941.0000;12377.5000
3942.0000;12382.5900
3943.0000;12408.7400
3944.0000;12405.5000
3945.0000;12381.8700
3946.0000;12386.2800
3947.0000;12386.2000
3948.0000;12371.2400
3949.0000;12344.7800
3950.0000;12320.8300
3951.0000;12303.4200
3952.0000;12271.7400
3953.0000;12253.0600
3954.0000;12260.1700
3955.0000;12282.9200
3956.0000;12284.4600
3957.0000;12249.6600
3958.0000;12227.2400
3959.0000;12204.2300
3960.0000;12177.1400
3961.0000;12154.2800
3962.0000;12155.3600
3963.0000;12177.4800
3964.0000;12168.3000
3965.0000;12134.4200
3966.0000;12099.8700
3967.0000;12086.4800
3968.0000;12085.5400
3969.0000;12075.4600
3970.0000;12068.9800
3971.0000;12067.1900
3972.0000;12065.6100
3973.0000;12046.5500
3974.0000;12029.2800
3975.0000;12038.3900
3976.0000;11998.3000
3977.0000;11948.3700
3978.0000;11964.7600
3979.0000;11957.6300
3980.0000;11936.1500
3981.0000;11949.3900
3982.0000;11946.3500
3983.0000;11927.4900
3984.0000;11922.8900
3985.0000;11927.7800
3986.0000;11931.2700
3987.0000;11914.6300
3988.0000;11898.8100
3989.0000;11894.9300
3990.0000;11900.7700
3991.0000;11910.4600
3992.0000;11920.7800
3993.0000;11935.9600
3994.0000;11936.3900
3995.0000;11924.7700
3996.0000;11929.8300
3997.0000;11932.0000
3998.0000;11922.6800
3999.0000;11902.0300
4000.0000;11898.2500
4001.0000;11910.7900
4002.0000;11897.7200
4003.0000;11880.7200
4004.0000;11872.8000
4005.0000;11869.7200
4006.0000;11878.9900
4007.0000;11892.4800
4008.0000;11887.0000
4009.0000;11886.7900
4010.0000;11894.2400
4011.0000;11881.4100
4012.0000;11868.4800
4013.0000;11861.8800
4014.0000;11841.1100
4015.0000;11828.9200
4016.0000;11835.3700
4017.0000;11848.8900
4018.0000;11854.3500
4019.0000;11846.5300
4020.0000;11843.5400
4021.0000;11851.8200
4022.0000;11859.1300
4023.0000;11829.1300
4024.0000;11794.9800
4025.0000;11781.6600
4026.0000;11791.0900
4027.0000;11763.4600
4028.0000;11702.3500
4029.0000;11685.0200
4030.0000;11677.4700
4031.0000;11665.3400
4032.0000;11645.7900
4033.0000;11644.7700
4034.0000;11656.5800
4035.0000;11645.2000
4036.0000;11614.2100
4037.0000;11590.4100
4038.0000;11615.2900
4039.0000;11626.1900
4040.0000;11606.3300
4041.0000;11583.0400
4042.0000;11550.0600
4043.0000;11525.6200
4044.0000;11530.7400
4045.0000;11543.8000
4046.0000;11552.4700
4047.0000;11550.9400
4048.0000;11561.6800
4049.0000;11573.8000
4050.0000;11564.6100
4051.0000;11569.8500
4052.0000;11582.2700
4053.0000;11580.0100
4054.0000;11588.3500
4055.0000;11586.6300
4056.0000;11553.0300
4057.0000;11554.4300
4058.0000;11582.9600
4059.0000;11605.8900
4060.0000;11640.9800
4061.0000;11654.1100
4062.0000;11627.0700
4063.0000;11614.2300
4064.0000;11617.4700
4065.0000;11626.7600
4066.0000;11617.0300
4067.0000;11612.3900
4068.0000;11624.9400
4069.0000;11612.7700
4070.0000;11595.1200
4071.0000;11585.9900
4072.0000;11571.3500
4073.0000;11561.6100
4074.0000;11554.4100
4075.0000;11526.6700
4076.0000;11496.4100
4077.0000;11471.1700
4078.0000;11435.4200
4079.0000;11421.0100
4080.0000;11419.2800
4081.0000;11380.8500
4082.0000;11333.3900
4083.0000;11297.6700
4084.0000;11281.2300
4085.0000;11297.4000
4086.0000;11307.2100
4087.0000;11258.8400
4088.0000;11228.3600
4089.0000;11210.6000
4090.0000;11183.0800
4091.0000;11182.0000
4092.0000;11192.0700
4093.0000;11189.9700
4094.0000;11195.8100
4095.0000;11202.1500
4096.0000;11204.2500
4097.0000;11213.9100
4098.0000;11219.4500
4099.0000;11215.1500
4100.0000;11210.6000
4101.0000;11200.8500
4102.0000;11186.4600
4103.0000;11168.4000
4104.0000;11165.1800
4105.0000;11151.1600
4106.0000;11071.8800
4107.0000;11044.1200
4108.0000;11053.7700
4109.0000;11018.2200
4110.0000;10958.0900
4111.0000;10892.5500
4112.0000;10840.5400
4113.0000;10754.9000
4114.0000;10656.7900
4115.0000;10575.0600
4116.0000;10494.3100
4117.0000;10429.3400
4118.0000;10368.8000
4119.0000;10271.1200
4120.0000;10159.6800
4121.0000;10056.6800
4122.0000;9970.0600
4123.0000;9880.8820
4124.0000;9799.5960
4125.0000;9736.1130
4126.0000;9653.3100
4127.0000;9574.1620
4128.0000;9522.5440
4129.0000;9443.7220
4130.0000;9348.5880
4131.0000;9256.5030
4132.0000;9172.2960
4133.0000;9097.8540
4134.0000;9009.5840
4135.0000;8845.2500
4136.0000;8707.4900
4137.0000;8621.8580
4138.0000;8480.1500
4139.0000;8344.0460
4140.0000;8231.5270
4141.0000;8113.1230
4142.0000;7989.3500
4143.0000;7865.2680
4144.0000;7734.2350
4145.0000;7595.8780
4146.0000;7487.1410
4147.0000;7411.7790
4148.0000;7298.1270
4149.0000;7188.6030
4150.0000;7100.4400
4151.0000;6991.8280
4152.0000;6903.2080
4153.0000;6837.4330
4154.0000;6750.6600
4155.0000;6656.7130
4156.0000;6568.4260
4157.0000;6487.1040
4158.0000;6376.8390
4159.0000;6245.2530
4160.0000;6117.5060
4161.0000;6046.6990
4162.0000;5974.4130
4163.0000;5875.2460
4164.0000;5814.2970
4165.0000;5734.2780
4166.0000;5646.4620
4167.0000;5591.5360
4168.0000;5529.6130
4169.0000;5470.5920
4170.0000;5428.9980
4171.0000;5390.1880
4172.0000;5348.7220
4173.0000;5303.7720
4174.0000;5281.7120
4175.0000;5266.4740
4176.0000;5238.0030
4177.0000;5184.0190
4178.0000;5145.2400
4179.0000;5117.1900
4180.0000;5068.8880
4181.0000;5045.8090
4182.0000;5039.0490
4183.0000;5023.4010
4184.0000;4999.7690
4185.0000;4968.0740
4186.0000;4942.6420
4187.0000;4945.1260
4188.0000;4957.8130
4189.0000;4965.4440
4190.0000;4961.7390
4191.0000;4977.0470
4192.0000;4990.9710
4193.0000;4978.5740
4194.0000;4956.7440
4195.0000;4945.1770
4196.0000;4946.3350
4197.0000;4924.5840
4198.0000;4897.3480
4199.0000;4877.6460
4200.0000;4869.9210
4201.0000;4871.9870
4202.0000;4872.8280
4203.0000;4861.8170
4204.0000;4846.0930
4205.0000;4848.5100
4206.0000;4873.8180
4207.0000;4898.7560
4208.0000;4894.5530
4209.0000;4887.1590
4210.0000;4924.5240
4211.0000;4913.1380
4212.0000;4886.1510
4213.0000;4888.1750
4214.0000;4884.5920
4215.0000;4881.5360
4216.0000;4870.5580
4217.0000;4832.4790
4218.0000;4799.2490
4219.0000;4787.3780
4220.0000;4796.9160
4221.0000;4823.8520
4222.0000;4852.5780
4223.0000;4862.2660
4224.0000;4844.8550
4225.0000;4820.1610
4226.0000;4812.8560
4227.0000;4830.0140
4228.0000;4810.8950
4229.0000;4780.0470
4230.0000;4775.9640
4231.0000;4775.9980
4232.0000;4787.9710
4233.0000;4802.6030
4234.0000;4803.1440
4235.0000;4774.2080
4236.0000;4274.6000
4237.0000;3029.3100
4238.0000;1608.5000
