Raman Shift ; Dark Subtracted #1
-2.0000;7667.2090
-1.0000;7208.7190
0.0000;6544.9790
1.0000;5662.1390
2.0000;4577.5210
3.0000;3403.9770
4.0000;2362.7970
5.0000;1476.4210
6.0000;863.2917
7.0000;613.3124
8.0000;438.4120
9.0000;349.7670
10.0000;405.5329
11.0000;399.3873
12.0000;254.3879
13.0000;107.9850
14.0000;4.1311
15.0000;-24.3285
16.0000;3.3506
17.0000;28.6622
18.0000;24.1697
19.0000;19.6774
20.0000;17.3393
21.0000;18.7011
22.0000;22.5630
23.0000;26.6147
24.0000;30.0812
25.0000;31.8114
26.0000;30.6229
27.0000;24.6229
28.0000;16.4548
29.0000;10.3581
30.0000;10.0219
31.0000;13.2134
32.0000;15.8624
33.0000;13.6056
34.0000;10.0449
35.0000;7.7918
36.0000;9.5370
37.0000;13.2920
38.0000;16.7301
39.0000;16.9279
40.0000;15.3647
41.0000;14.1198
42.0000;15.8192
43.0000;18.6945
44.0000;20.8952
45.0000;20.8757
46.0000;18.9502
47.0000;16.3917
48.0000;14.0731
49.0000;12.2446
50.0000;11.4085
51.0000;12.6652
52.0000;15.2336
53.0000;16.5093
54.0000;12.9305
55.0000;6.2918
56.0000;0.7553
57.0000;-0.5592
58.0000;2.8157
59.0000;9.0053
60.0000;16.0228
61.0000;23.6928
62.0000;31.0798
63.0000;38.6051
64.0000;43.7977
65.0000;46.7963
66.0000;47.7936
67.0000;46.3447
68.0000;46.4749
69.0000;52.8279
70.0000;64.5818
71.0000;78.7259
72.0000;93.2822
73.0000;106.2561
74.0000;118.2492
75.0000;132.3172
76.0000;144.6639
77.0000;156.4708
78.0000;172.1945
79.0000;188.5217
80.0000;203.6923
81.0000;219.7582
82.0000;233.3122
83.0000;245.4044
84.0000;259.8773
85.0000;274.1571
86.0000;288.7429
87.0000;308.3680
88.0000;330.0236
89.0000;351.9577
90.0000;375.1256
91.0000;395.9730
92.0000;414.9446
93.0000;437.8542
94.0000;460.9174
95.0000;484.2820
96.0000;513.8176
97.0000;545.7256
98.0000;574.1505
99.0000;601.0344
100.0000;621.2560
101.0000;635.1605
102.0000;653.6907
103.0000;673.8553
104.0000;693.1923
105.0000;715.4501
106.0000;737.8601
107.0000;758.1704
108.0000;781.9445
109.0000;804.2203
110.0000;822.4272
111.0000;840.0385
112.0000;853.9500
113.0000;865.1323
114.0000;883.0654
115.0000;906.3941
116.0000;929.7855
117.0000;952.2838
118.0000;970.6937
119.0000;984.7048
120.0000;999.1796
121.0000;1012.0390
122.0000;1023.4390
123.0000;1039.7690
124.0000;1059.9190
125.0000;1078.4420
126.0000;1093.3990
127.0000;1101.8730
128.0000;1106.8800
129.0000;1116.9710
130.0000;1131.7860
131.0000;1145.9330
132.0000;1157.1100
133.0000;1163.1000
134.0000;1166.5580
135.0000;1173.9040
136.0000;1184.9170
137.0000;1195.9280
138.0000;1205.3010
139.0000;1211.5530
140.0000;1216.3880
141.0000;1225.2020
142.0000;1237.8760
143.0000;1249.4680
144.0000;1259.6780
145.0000;1265.6720
146.0000;1268.6410
147.0000;1272.6860
148.0000;1276.8320
149.0000;1280.0810
150.0000;1283.9950
151.0000;1288.0910
152.0000;1290.6080
153.0000;1291.8260
154.0000;1290.9700
155.0000;1288.6430
156.0000;1286.5160
157.0000;1284.8870
158.0000;1282.8370
159.0000;1279.2280
160.0000;1274.3150
161.0000;1271.0390
162.0000;1271.4980
163.0000;1276.3990
164.0000;1282.4590
165.0000;1284.5240
166.0000;1282.2760
167.0000;1280.6540
168.0000;1285.8170
169.0000;1296.9810
170.0000;1307.4070
171.0000;1309.8030
172.0000;1303.0210
173.0000;1294.3850
174.0000;1291.6220
175.0000;1295.2780
176.0000;1300.5170
177.0000;1302.6500
178.0000;1302.0160
179.0000;1302.2870
180.0000;1307.9280
181.0000;1317.8390
182.0000;1326.0140
183.0000;1328.0060
184.0000;1322.8370
185.0000;1316.2000
186.0000;1313.3290
187.0000;1314.2410
188.0000;1317.5600
189.0000;1322.7020
190.0000;1328.8870
191.0000;1333.9090
192.0000;1335.3640
193.0000;1332.8430
194.0000;1328.8350
195.0000;1326.7130
196.0000;1325.5820
197.0000;1324.5330
198.0000;1322.0470
199.0000;1319.3440
200.0000;1317.9260
201.0000;1319.4120
202.0000;1323.0300
203.0000;1325.6120
204.0000;1323.6060
205.0000;1318.5980
206.0000;1314.1490
207.0000;1312.8900
208.0000;1314.6960
209.0000;1318.4450
210.0000;1322.9840
211.0000;1328.1460
212.0000;1333.1680
213.0000;1337.6590
214.0000;1340.3670
215.0000;1342.2000
216.0000;1344.2920
217.0000;1345.3550
218.0000;1346.4750
219.0000;1349.2270
220.0000;1351.9440
221.0000;1353.9680
222.0000;1353.4290
223.0000;1352.9630
224.0000;1356.5790
225.0000;1368.7210
226.0000;1382.9150
227.0000;1394.1180
228.0000;1397.3850
229.0000;1394.8110
230.0000;1392.6560
231.0000;1394.6390
232.0000;1397.4400
233.0000;1400.3470
234.0000;1403.0810
235.0000;1404.9050
236.0000;1405.7550
237.0000;1405.5040
238.0000;1403.9930
239.0000;1402.2820
240.0000;1400.9380
241.0000;1399.1810
242.0000;1395.9930
243.0000;1390.5950
244.0000;1386.7740
245.0000;1387.9480
246.0000;1395.9150
247.0000;1405.3140
248.0000;1409.8330
249.0000;1407.2500
250.0000;1402.3100
251.0000;1400.1100
252.0000;1401.6900
253.0000;1404.0160
254.0000;1404.6660
255.0000;1403.3740
256.0000;1401.4080
257.0000;1399.4320
258.0000;1397.8420
259.0000;1397.5660
260.0000;1399.6150
261.0000;1403.7540
262.0000;1408.1210
263.0000;1410.2330
264.0000;1409.9920
265.0000;1409.5820
266.0000;1411.0530
267.0000;1414.0330
268.0000;1418.4620
269.0000;1425.1200
270.0000;1432.5910
271.0000;1439.2410
272.0000;1445.2570
273.0000;1448.3250
274.0000;1448.8360
275.0000;1447.1450
276.0000;1443.4410
277.0000;1441.5000
278.0000;1445.0080
279.0000;1451.7400
280.0000;1458.6670
281.0000;1463.5240
282.0000;1466.5740
283.0000;1469.2710
284.0000;1473.6110
285.0000;1476.4280
286.0000;1476.7840
287.0000;1472.9210
288.0000;1468.0730
289.0000;1467.4560
290.0000;1475.2830
291.0000;1485.2540
292.0000;1491.1580
293.0000;1489.3370
294.0000;1484.4350
295.0000;1482.0790
296.0000;1484.1050
297.0000;1488.5780
298.0000;1494.7910
299.0000;1502.3520
300.0000;1508.6290
301.0000;1511.5420
302.0000;1509.4500
303.0000;1505.1020
304.0000;1501.9660
305.0000;1500.4620
306.0000;1500.9340
307.0000;1504.4790
308.0000;1511.0570
309.0000;1516.8870
310.0000;1519.1680
311.0000;1517.3900
312.0000;1513.8990
313.0000;1511.3720
314.0000;1509.2440
315.0000;1507.6470
316.0000;1505.9540
317.0000;1505.2730
318.0000;1505.9170
319.0000;1507.7930
320.0000;1511.0260
321.0000;1514.8120
322.0000;1518.2940
323.0000;1521.5960
324.0000;1525.7240
325.0000;1532.1020
326.0000;1537.6040
327.0000;1540.4460
328.0000;1538.4370
329.0000;1534.4270
330.0000;1533.5380
331.0000;1538.6910
332.0000;1546.4970
333.0000;1553.2390
334.0000;1557.3990
335.0000;1559.7100
336.0000;1562.2310
337.0000;1564.6680
338.0000;1565.7440
339.0000;1564.9850
340.0000;1561.9550
341.0000;1560.7430
342.0000;1566.0550
343.0000;1578.2810
344.0000;1590.9480
345.0000;1599.7570
346.0000;1603.0470
347.0000;1603.3140
348.0000;1605.6530
349.0000;1607.2410
350.0000;1606.6040
351.0000;1603.2520
352.0000;1597.4250
353.0000;1592.1410
354.0000;1589.6720
355.0000;1589.5300
356.0000;1589.4160
357.0000;1585.7200
358.0000;1582.3760
359.0000;1581.6660
360.0000;1586.1890
361.0000;1592.8930
362.0000;1597.6670
363.0000;1597.1250
364.0000;1594.4810
365.0000;1593.7850
366.0000;1597.0380
367.0000;1601.3350
368.0000;1604.0420
369.0000;1604.1690
370.0000;1603.4920
371.0000;1604.4460
372.0000;1607.2840
373.0000;1610.2640
374.0000;1612.4240
375.0000;1613.2360
376.0000;1613.8740
377.0000;1615.9290
378.0000;1618.8360
379.0000;1621.5220
380.0000;1624.0930
381.0000;1625.5760
382.0000;1626.0120
383.0000;1624.4310
384.0000;1622.2670
385.0000;1622.9000
386.0000;1631.9200
387.0000;1643.1160
388.0000;1649.9410
389.0000;1645.6810
390.0000;1635.6210
391.0000;1628.8650
392.0000;1630.2590
393.0000;1636.6120
394.0000;1645.1610
395.0000;1654.3110
396.0000;1662.7760
397.0000;1668.3320
398.0000;1669.4890
399.0000;1667.3110
400.0000;1665.4140
401.0000;1663.7720
402.0000;1662.9380
403.0000;1663.8100
404.0000;1666.8410
405.0000;1671.6640
406.0000;1680.1470
407.0000;1689.3450
408.0000;1694.5840
409.0000;1689.3850
410.0000;1677.3600
411.0000;1668.3990
412.0000;1672.3570
413.0000;1685.2940
414.0000;1699.5840
415.0000;1709.7990
416.0000;1716.7200
417.0000;1721.0460
418.0000;1722.8610
419.0000;1721.7980
420.0000;1722.3410
421.0000;1726.5280
422.0000;1730.2360
423.0000;1730.0330
424.0000;1724.6190
425.0000;1718.7210
426.0000;1718.4250
427.0000;1724.7840
428.0000;1732.3240
429.0000;1736.6330
430.0000;1736.8060
431.0000;1734.9320
432.0000;1732.9640
433.0000;1730.5220
434.0000;1728.6850
435.0000;1728.5690
436.0000;1730.0000
437.0000;1731.7080
438.0000;1731.4230
439.0000;1731.4790
440.0000;1734.1590
441.0000;1741.7890
442.0000;1750.8300
443.0000;1757.5100
444.0000;1759.5090
445.0000;1759.1640
446.0000;1761.6150
447.0000;1768.0920
448.0000;1774.4390
449.0000;1778.6530
450.0000;1779.2420
451.0000;1778.9180
452.0000;1781.6100
453.0000;1786.5280
454.0000;1791.7350
455.0000;1797.7350
456.0000;1802.4740
457.0000;1804.4030
458.0000;1801.8160
459.0000;1796.0850
460.0000;1792.7310
461.0000;1797.7510
462.0000;1805.9930
463.0000;1810.4430
464.0000;1804.4010
465.0000;1796.3880
466.0000;1796.5260
467.0000;1810.2800
468.0000;1828.1790
469.0000;1840.6210
470.0000;1844.2850
471.0000;1842.9170
472.0000;1843.1220
473.0000;1844.1250
474.0000;1844.5290
475.0000;1845.0050
476.0000;1845.1990
477.0000;1845.2770
478.0000;1845.3910
479.0000;1845.6640
480.0000;1846.6000
481.0000;1848.7330
482.0000;1851.5050
483.0000;1854.2160
484.0000;1855.7270
485.0000;1857.4440
486.0000;1861.8160
487.0000;1870.1960
488.0000;1878.8740
489.0000;1885.5920
490.0000;1888.5820
491.0000;1888.0120
492.0000;1885.4490
493.0000;1880.7140
494.0000;1877.2590
495.0000;1878.4370
496.0000;1884.8290
497.0000;1894.7940
498.0000;1907.2540
499.0000;1920.5500
500.0000;1932.7000
501.0000;1945.4000
502.0000;1953.0080
503.0000;1956.1020
504.0000;1954.7850
505.0000;1949.0260
506.0000;1944.8000
507.0000;1945.1380
508.0000;1947.2730
509.0000;1948.0540
510.0000;1946.9060
511.0000;1947.9360
512.0000;1955.8650
513.0000;1969.8720
514.0000;1982.3870
515.0000;1987.2800
516.0000;1983.4460
517.0000;1976.5040
518.0000;1973.3680
519.0000;1971.6020
520.0000;1970.7510
521.0000;1970.8760
522.0000;1971.6050
523.0000;1970.8500
524.0000;1966.5420
525.0000;1962.2610
526.0000;1960.8080
527.0000;1963.6380
528.0000;1969.0090
529.0000;1975.0420
530.0000;1980.5140
531.0000;1984.1560
532.0000;1983.8270
533.0000;1979.7700
534.0000;1977.8270
535.0000;1984.8960
536.0000;1997.7190
537.0000;2010.2000
538.0000;2018.6040
539.0000;2021.8840
540.0000;2023.4630
541.0000;2025.5870
542.0000;2025.4730
543.0000;2024.3120
544.0000;2022.2110
545.0000;2020.0530
546.0000;2019.5940
547.0000;2021.4180
548.0000;2024.3030
549.0000;2026.9900
550.0000;2029.1260
551.0000;2031.0700
552.0000;2033.9920
553.0000;2036.4390
554.0000;2037.1000
555.0000;2034.6700
556.0000;2030.5550
557.0000;2028.5320
558.0000;2031.2740
559.0000;2036.0310
560.0000;2038.9260
561.0000;2038.3860
562.0000;2036.2060
563.0000;2034.4860
564.0000;2033.5200
565.0000;2033.4620
566.0000;2034.5150
567.0000;2036.9200
568.0000;2039.9530
569.0000;2044.1470
570.0000;2047.8840
571.0000;2048.8680
572.0000;2044.5470
573.0000;2037.9490
574.0000;2034.2810
575.0000;2037.6460
576.0000;2043.5760
577.0000;2047.1340
578.0000;2046.1740
579.0000;2042.3450
580.0000;2037.2920
581.0000;2031.3530
582.0000;2025.9930
583.0000;2022.7650
584.0000;2022.4440
585.0000;2023.2490
586.0000;2022.1030
587.0000;2021.2530
588.0000;2021.7250
589.0000;2024.0250
590.0000;2027.8930
591.0000;2032.6120
592.0000;2038.6560
593.0000;2042.1280
594.0000;2040.1100
595.0000;2031.3840
596.0000;2020.7940
597.0000;2014.9290
598.0000;2014.3540
599.0000;2015.2760
600.0000;2011.5590
601.0000;2007.3760
602.0000;2006.7850
603.0000;2014.1730
604.0000;2025.0560
605.0000;2033.3710
606.0000;2034.4190
607.0000;2031.1810
608.0000;2028.2300
609.0000;2026.4090
610.0000;2027.0150
611.0000;2033.0060
612.0000;2044.2460
613.0000;2054.1040
614.0000;2057.8200
615.0000;2054.5900
616.0000;2049.6190
617.0000;2046.6330
618.0000;2045.3940
619.0000;2047.5400
620.0000;2055.1100
621.0000;2064.1770
622.0000;2070.4010
623.0000;2070.7070
624.0000;2068.5020
625.0000;2068.2310
626.0000;2070.1770
627.0000;2073.7050
628.0000;2081.0700
629.0000;2089.6300
630.0000;2093.9670
631.0000;2088.3490
632.0000;2077.1200
633.0000;2070.9670
634.0000;2078.1100
635.0000;2090.3710
636.0000;2096.9360
637.0000;2092.9930
638.0000;2085.8190
639.0000;2083.8950
640.0000;2088.0840
641.0000;2093.1390
642.0000;2094.2180
643.0000;2092.4580
644.0000;2092.1490
645.0000;2096.6130
646.0000;2104.3390
647.0000;2112.9830
648.0000;2119.6140
649.0000;2127.4000
650.0000;2140.7030
651.0000;2160.7810
652.0000;2183.2750
653.0000;2207.5790
654.0000;2229.5110
655.0000;2249.0860
656.0000;2274.7410
657.0000;2297.3280
658.0000;2314.8000
659.0000;2332.6520
660.0000;2340.9950
661.0000;2343.6870
662.0000;2339.5640
663.0000;2335.9830
664.0000;2349.5220
665.0000;2384.9890
666.0000;2425.0630
667.0000;2461.4400
668.0000;2483.2360
669.0000;2482.5650
670.0000;2457.5100
671.0000;2405.7220
672.0000;2347.2730
673.0000;2296.8580
674.0000;2258.0590
675.0000;2222.7440
676.0000;2190.9630
677.0000;2170.2410
678.0000;2145.5990
679.0000;2121.1780
680.0000;2105.1780
681.0000;2092.8960
682.0000;2090.2160
683.0000;2090.1950
684.0000;2079.9490
685.0000;2068.5390
686.0000;2060.5980
687.0000;2058.4730
688.0000;2062.4320
689.0000;2068.3240
690.0000;2075.0690
691.0000;2080.8610
692.0000;2082.8790
693.0000;2079.8720
694.0000;2074.5230
695.0000;2069.6520
696.0000;2065.6620
697.0000;2063.6470
698.0000;2063.8530
699.0000;2066.9590
700.0000;2071.1750
701.0000;2075.7310
702.0000;2079.7390
703.0000;2081.8600
704.0000;2081.1010
705.0000;2080.4780
706.0000;2084.2600
707.0000;2091.0660
708.0000;2097.2410
709.0000;2101.0250
710.0000;2101.2890
711.0000;2099.1170
712.0000;2094.3050
713.0000;2089.3450
714.0000;2088.7300
715.0000;2094.4530
716.0000;2102.4960
717.0000;2109.3020
718.0000;2113.4110
719.0000;2113.9450
720.0000;2109.5690
721.0000;2101.7300
722.0000;2096.7660
723.0000;2100.1870
724.0000;2108.1760
725.0000;2115.2670
726.0000;2118.8410
727.0000;2120.5830
728.0000;2122.9870
729.0000;2125.1840
730.0000;2125.5800
731.0000;2123.1740
732.0000;2118.7270
733.0000;2115.7520
734.0000;2117.4740
735.0000;2122.0320
736.0000;2126.3980
737.0000;2129.0100
738.0000;2130.3820
739.0000;2132.1040
740.0000;2133.6420
741.0000;2132.8950
742.0000;2127.9210
743.0000;2120.1300
744.0000;2114.2000
745.0000;2113.7890
746.0000;2117.8030
747.0000;2121.7150
748.0000;2122.5760
749.0000;2124.2170
750.0000;2130.9570
751.0000;2142.7390
752.0000;2152.0080
753.0000;2151.2440
754.0000;2141.2730
755.0000;2131.0000
756.0000;2129.6610
757.0000;2133.3290
758.0000;2137.5360
759.0000;2139.9630
760.0000;2140.6520
761.0000;2137.6940
762.0000;2130.8330
763.0000;2124.9660
764.0000;2124.6970
765.0000;2130.3880
766.0000;2138.6000
767.0000;2147.2770
768.0000;2154.1670
769.0000;2156.1730
770.0000;2149.9120
771.0000;2141.4970
772.0000;2141.2800
773.0000;2151.0880
774.0000;2162.6530
775.0000;2166.5700
776.0000;2163.9460
777.0000;2161.5000
778.0000;2166.9200
779.0000;2173.8430
780.0000;2177.5890
781.0000;2174.9960
782.0000;2169.1980
783.0000;2163.7510
784.0000;2160.1460
785.0000;2159.7730
786.0000;2164.6020
787.0000;2173.9480
788.0000;2181.8510
789.0000;2183.6820
790.0000;2181.6860
791.0000;2181.4500
792.0000;2185.7580
793.0000;2190.0460
794.0000;2190.2630
795.0000;2185.8400
796.0000;2182.1940
797.0000;2184.3760
798.0000;2191.3460
799.0000;2199.1320
800.0000;2205.9040
801.0000;2210.7260
802.0000;2214.5200
803.0000;2216.5560
804.0000;2216.7480
805.0000;2217.5670
806.0000;2218.3180
807.0000;2218.1780
808.0000;2216.8430
809.0000;2214.6610
810.0000;2213.1070
811.0000;2212.9290
812.0000;2214.2340
813.0000;2216.5710
814.0000;2219.9420
815.0000;2223.5380
816.0000;2226.5450
817.0000;2228.5310
818.0000;2230.1520
819.0000;2233.9400
820.0000;2236.7000
821.0000;2235.6390
822.0000;2228.3300
823.0000;2220.5020
824.0000;2220.5860
825.0000;2230.0770
826.0000;2240.4020
827.0000;2240.5060
828.0000;2233.7370
829.0000;2230.0290
830.0000;2240.2930
831.0000;2254.4830
832.0000;2261.3260
833.0000;2255.3010
834.0000;2244.4880
835.0000;2239.3240
836.0000;2240.3740
837.0000;2243.0770
838.0000;2242.5950
839.0000;2241.5470
840.0000;2241.9610
841.0000;2245.0790
842.0000;2249.6230
843.0000;2254.5810
844.0000;2258.9910
845.0000;2261.2550
846.0000;2259.8100
847.0000;2254.7820
848.0000;2250.5630
849.0000;2251.7690
850.0000;2255.3070
851.0000;2256.6490
852.0000;2253.4120
853.0000;2248.8360
854.0000;2245.6590
855.0000;2244.7030
856.0000;2245.4870
857.0000;2246.8590
858.0000;2249.7080
859.0000;2253.7770
860.0000;2258.9070
861.0000;2263.9870
862.0000;2268.7820
863.0000;2272.2590
864.0000;2273.9290
865.0000;2274.1510
866.0000;2272.5900
867.0000;2271.8380
868.0000;2274.8100
869.0000;2279.2880
870.0000;2282.8460
871.0000;2283.9310
872.0000;2284.6790
873.0000;2288.8640
874.0000;2295.3400
875.0000;2299.5720
876.0000;2296.7730
877.0000;2290.2160
878.0000;2288.3700
879.0000;2297.5560
880.0000;2310.1810
881.0000;2317.9510
882.0000;2317.9370
883.0000;2315.1360
884.0000;2315.4160
885.0000;2317.2740
886.0000;2320.0600
887.0000;2323.5420
888.0000;2327.5070
889.0000;2332.4190
890.0000;2337.9780
891.0000;2342.4090
892.0000;2344.6160
893.0000;2344.1990
894.0000;2344.3000
895.0000;2349.0290
896.0000;2354.9690
897.0000;2359.4570
898.0000;2360.6380
899.0000;2360.4160
900.0000;2362.4310
901.0000;2366.2100
902.0000;2369.5330
903.0000;2371.8470
904.0000;2372.0480
905.0000;2370.1730
906.0000;2365.2080
907.0000;2361.4420
908.0000;2365.0690
909.0000;2377.0780
910.0000;2388.2440
911.0000;2388.0830
912.0000;2379.7590
913.0000;2376.1730
914.0000;2387.1110
915.0000;2402.5860
916.0000;2412.5000
917.0000;2412.5840
918.0000;2408.1670
919.0000;2406.4630
920.0000;2406.0420
921.0000;2406.6630
922.0000;2408.7190
923.0000;2411.7480
924.0000;2414.2660
925.0000;2415.5240
926.0000;2417.0540
927.0000;2420.9930
928.0000;2426.7210
929.0000;2432.3000
930.0000;2438.4060
931.0000;2442.1870
932.0000;2442.8140
933.0000;2438.9820
934.0000;2434.4080
935.0000;2435.8840
936.0000;2442.6280
937.0000;2447.1540
938.0000;2441.7820
939.0000;2431.2510
940.0000;2424.7240
941.0000;2426.7120
942.0000;2433.2610
943.0000;2438.7750
944.0000;2442.6570
945.0000;2445.0000
946.0000;2445.3310
947.0000;2443.8130
948.0000;2443.5400
949.0000;2446.3650
950.0000;2450.2800
951.0000;2453.5300
952.0000;2455.4180
953.0000;2457.9120
954.0000;2465.0120
955.0000;2472.3610
956.0000;2475.4090
957.0000;2470.2880
958.0000;2462.1850
959.0000;2458.4540
960.0000;2461.1140
961.0000;2467.2880
962.0000;2475.0400
963.0000;2482.7820
964.0000;2487.0290
965.0000;2484.6810
966.0000;2478.5610
967.0000;2474.4580
968.0000;2473.6380
969.0000;2476.3920
970.0000;2484.7910
971.0000;2495.4830
972.0000;2501.8830
973.0000;2498.2710
974.0000;2490.3440
975.0000;2486.4090
976.0000;2488.7010
977.0000;2494.9000
978.0000;2503.6660
979.0000;2513.7140
980.0000;2520.9430
981.0000;2522.0770
982.0000;2520.0720
983.0000;2521.3990
984.0000;2526.8080
985.0000;2534.0950
986.0000;2543.4670
987.0000;2552.6320
988.0000;2561.2170
989.0000;2567.7980
990.0000;2572.5800
991.0000;2580.6270
992.0000;2590.4390
993.0000;2596.9130
994.0000;2597.9660
995.0000;2592.2060
996.0000;2584.1090
997.0000;2576.5370
998.0000;2569.7840
999.0000;2565.3370
1000.0000;2564.4920
1001.0000;2565.5130
1002.0000;2564.7190
1003.0000;2563.9960
1004.0000;2564.0870
1005.0000;2565.9810
1006.0000;2566.5360
1007.0000;2561.1370
1008.0000;2550.5270
1009.0000;2541.3430
1010.0000;2539.5820
1011.0000;2544.2400
1012.0000;2549.7440
1013.0000;2553.1310
1014.0000;2555.1040
1015.0000;2554.8090
1016.0000;2552.1360
1017.0000;2551.0670
1018.0000;2557.0800
1019.0000;2565.2510
1020.0000;2568.0200
1021.0000;2561.0290
1022.0000;2552.4480
1023.0000;2550.3270
1024.0000;2555.6850
1025.0000;2564.3560
1026.0000;2574.4980
1027.0000;2583.2770
1028.0000;2586.3430
1029.0000;2580.9710
1030.0000;2571.3100
1031.0000;2562.9180
1032.0000;2556.9690
1033.0000;2555.8280
1034.0000;2560.9990
1035.0000;2570.9420
1036.0000;2579.7410
1037.0000;2585.4510
1038.0000;2588.5030
1039.0000;2591.3110
1040.0000;2591.5760
1041.0000;2589.4510
1042.0000;2583.4710
1043.0000;2579.7250
1044.0000;2586.5580
1045.0000;2605.5940
1046.0000;2624.2510
1047.0000;2630.9790
1048.0000;2627.4240
1049.0000;2624.8660
1050.0000;2629.7320
1051.0000;2635.3920
1052.0000;2638.4780
1053.0000;2638.3190
1054.0000;2637.5950
1055.0000;2639.5750
1056.0000;2642.3770
1057.0000;2644.8430
1058.0000;2646.0960
1059.0000;2647.5270
1060.0000;2652.0380
1061.0000;2658.0430
1062.0000;2661.5310
1063.0000;2658.2720
1064.0000;2652.9330
1065.0000;2653.5120
1066.0000;2662.5980
1067.0000;2674.4790
1068.0000;2684.7520
1069.0000;2691.7220
1070.0000;2696.1070
1071.0000;2698.0550
1072.0000;2697.7030
1073.0000;2700.2800
1074.0000;2705.8280
1075.0000;2711.0600
1076.0000;2713.7810
1077.0000;2714.4730
1078.0000;2716.8030
1079.0000;2722.5900
1080.0000;2728.9060
1081.0000;2734.7810
1082.0000;2738.7710
1083.0000;2740.5560
1084.0000;2740.7450
1085.0000;2739.3490
1086.0000;2740.0510
1087.0000;2744.0090
1088.0000;2748.0320
1089.0000;2748.2680
1090.0000;2746.3760
1091.0000;2748.6690
1092.0000;2759.7220
1093.0000;2773.7650
1094.0000;2786.1130
1095.0000;2793.6180
1096.0000;2795.6690
1097.0000;2794.4990
1098.0000;2788.1000
1099.0000;2780.8570
1100.0000;2775.2130
1101.0000;2770.5240
1102.0000;2765.8090
1103.0000;2762.3520
1104.0000;2759.7860
1105.0000;2756.4650
1106.0000;2754.1360
1107.0000;2751.7900
1108.0000;2749.8280
1109.0000;2748.2940
1110.0000;2745.9550
1111.0000;2743.8430
1112.0000;2742.3920
1113.0000;2741.8210
1114.0000;2741.8230
1115.0000;2741.2930
1116.0000;2740.1480
1117.0000;2737.7850
1118.0000;2732.9070
1119.0000;2727.3310
1120.0000;2723.6620
1121.0000;2723.3920
1122.0000;2722.7970
1123.0000;2716.6680
1124.0000;2706.9960
1125.0000;2697.1730
1126.0000;2689.9020
1127.0000;2685.4080
1128.0000;2681.1400
1129.0000;2678.1800
1130.0000;2674.6910
1131.0000;2666.0180
1132.0000;2656.8240
1133.0000;2649.7860
1134.0000;2647.1220
1135.0000;2646.8600
1136.0000;2643.0380
1137.0000;2638.2000
1138.0000;2635.6590
1139.0000;2638.5290
1140.0000;2642.5290
1141.0000;2640.5540
1142.0000;2631.6450
1143.0000;2622.2420
1144.0000;2618.3790
1145.0000;2618.8610
1146.0000;2618.9270
1147.0000;2616.5250
1148.0000;2614.7630
1149.0000;2615.9740
1150.0000;2619.2040
1151.0000;2619.4110
1152.0000;2611.7850
1153.0000;2602.5020
1154.0000;2598.6310
1155.0000;2602.3510
1156.0000;2606.3190
1157.0000;2603.2360
1158.0000;2595.5660
1159.0000;2586.1820
1160.0000;2575.6120
1161.0000;2569.5480
1162.0000;2572.0790
1163.0000;2582.9530
1164.0000;2592.9600
1165.0000;2593.3080
1166.0000;2590.5170
1167.0000;2593.6980
1168.0000;2602.8710
1169.0000;2610.9420
1170.0000;2613.8930
1171.0000;2610.4270
1172.0000;2602.1770
1173.0000;2589.9080
1174.0000;2578.7260
1175.0000;2574.3440
1176.0000;2578.2210
1177.0000;2585.4040
1178.0000;2592.2840
1179.0000;2599.1800
1180.0000;2605.1890
1181.0000;2608.0370
1182.0000;2605.7000
1183.0000;2595.6820
1184.0000;2583.2230
1185.0000;2577.3230
1186.0000;2582.7200
1187.0000;2590.5360
1188.0000;2591.0250
1189.0000;2586.6500
1190.0000;2583.0270
1191.0000;2583.1230
1192.0000;2583.8870
1193.0000;2581.8700
1194.0000;2577.7790
1195.0000;2574.9660
1196.0000;2575.4310
1197.0000;2578.4100
1198.0000;2582.1900
1199.0000;2585.9870
1200.0000;2588.2400
1201.0000;2587.8250
1202.0000;2584.7700
1203.0000;2581.4060
1204.0000;2578.7050
1205.0000;2577.9510
1206.0000;2579.6890
1207.0000;2584.5590
1208.0000;2591.4900
1209.0000;2600.1640
1210.0000;2607.4020
1211.0000;2611.6400
1212.0000;2611.0760
1213.0000;2606.7840
1214.0000;2600.4630
1215.0000;2593.2700
1216.0000;2588.2620
1217.0000;2587.2930
1218.0000;2590.3670
1219.0000;2596.0100
1220.0000;2604.3360
1221.0000;2613.1560
1222.0000;2620.8270
1223.0000;2626.1150
1224.0000;2631.4750
1225.0000;2633.4730
1226.0000;2630.5820
1227.0000;2621.7320
1228.0000;2610.1170
1229.0000;2600.1930
1230.0000;2594.9880
1231.0000;2596.2950
1232.0000;2605.6030
1233.0000;2618.9720
1234.0000;2626.3420
1235.0000;2623.9230
1236.0000;2618.1840
1237.0000;2616.7910
1238.0000;2616.8680
1239.0000;2616.1310
1240.0000;2613.8330
1241.0000;2611.3860
1242.0000;2609.7350
1243.0000;2608.9240
1244.0000;2607.2480
1245.0000;2602.9610
1246.0000;2600.2290
1247.0000;2603.2060
1248.0000;2611.3800
1249.0000;2617.5530
1250.0000;2614.8840
1251.0000;2609.2510
1252.0000;2609.8460
1253.0000;2618.0120
1254.0000;2625.7510
1255.0000;2626.5860
1256.0000;2622.5340
1257.0000;2618.8570
1258.0000;2617.1670
1259.0000;2616.6710
1260.0000;2617.2400
1261.0000;2618.9210
1262.0000;2620.0970
1263.0000;2619.6930
1264.0000;2619.4290
1265.0000;2620.3570
1266.0000;2622.9980
1267.0000;2628.7490
1268.0000;2639.8900
1269.0000;2649.0490
1270.0000;2648.4760
1271.0000;2637.2130
1272.0000;2627.9890
1273.0000;2631.4590
1274.0000;2639.9160
1275.0000;2641.2900
1276.0000;2634.2100
1277.0000;2634.3800
1278.0000;2661.3180
1279.0000;2693.6140
1280.0000;2701.5440
1281.0000;2672.8250
1282.0000;2638.2360
1283.0000;2628.7000
1284.0000;2638.5520
1285.0000;2649.7170
1286.0000;2655.7090
1287.0000;2660.3640
1288.0000;2664.5520
1289.0000;2666.1030
1290.0000;2665.6480
1291.0000;2663.2380
1292.0000;2660.3960
1293.0000;2660.5660
1294.0000;2663.6560
1295.0000;2667.5250
1296.0000;2670.4480
1297.0000;2672.7070
1298.0000;2675.4110
1299.0000;2677.4760
1300.0000;2677.4750
1301.0000;2672.5140
1302.0000;2668.3440
1303.0000;2673.6930
1304.0000;2689.1680
1305.0000;2703.2580
1306.0000;2706.3220
1307.0000;2701.3380
1308.0000;2698.4090
1309.0000;2699.8990
1310.0000;2701.1820
1311.0000;2698.4540
1312.0000;2695.0200
1313.0000;2696.4270
1314.0000;2704.9870
1315.0000;2712.2080
1316.0000;2708.3950
1317.0000;2697.6740
1318.0000;2691.6200
1319.0000;2696.6920
1320.0000;2705.6190
1321.0000;2710.6560
1322.0000;2711.8230
1323.0000;2710.2570
1324.0000;2705.2730
1325.0000;2702.0460
1326.0000;2708.9600
1327.0000;2722.9690
1328.0000;2732.0670
1329.0000;2726.9960
1330.0000;2715.8830
1331.0000;2711.3510
1332.0000;2713.5540
1333.0000;2716.0350
1334.0000;2713.9160
1335.0000;2711.2950
1336.0000;2710.6340
1337.0000;2712.7720
1338.0000;2717.7780
1339.0000;2727.1910
1340.0000;2736.2990
1341.0000;2741.1620
1342.0000;2739.1650
1343.0000;2733.8000
1344.0000;2729.3420
1345.0000;2724.4960
1346.0000;2718.5880
1347.0000;2712.8470
1348.0000;2710.7710
1349.0000;2713.5530
1350.0000;2721.0560
1351.0000;2729.1820
1352.0000;2736.4270
1353.0000;2739.1640
1354.0000;2735.6610
1355.0000;2726.0650
1356.0000;2716.0040
1357.0000;2708.3620
1358.0000;2704.1200
1359.0000;2702.9690
1360.0000;2706.8180
1361.0000;2711.9760
1362.0000;2717.0920
1363.0000;2723.3460
1364.0000;2732.7330
1365.0000;2741.7000
1366.0000;2746.6730
1367.0000;2745.4340
1368.0000;2739.5160
1369.0000;2731.6820
1370.0000;2723.8570
1371.0000;2720.9030
1372.0000;2726.1570
1373.0000;2733.5080
1374.0000;2734.1880
1375.0000;2730.6830
1376.0000;2731.3050
1377.0000;2740.2980
1378.0000;2750.7800
1379.0000;2758.5070
1380.0000;2761.1470
1381.0000;2760.1780
1382.0000;2756.1040
1383.0000;2750.0410
1384.0000;2745.7430
1385.0000;2743.5700
1386.0000;2742.3830
1387.0000;2741.6140
1388.0000;2741.8170
1389.0000;2741.6300
1390.0000;2741.5050
1391.0000;2741.7640
1392.0000;2742.3860
1393.0000;2743.5360
1394.0000;2745.1050
1395.0000;2747.1030
1396.0000;2750.3580
1397.0000;2756.1900
1398.0000;2759.7350
1399.0000;2756.3330
1400.0000;2746.7980
1401.0000;2738.7920
1402.0000;2736.8820
1403.0000;2740.0950
1404.0000;2746.5760
1405.0000;2755.2190
1406.0000;2760.6440
1407.0000;2758.5050
1408.0000;2753.6720
1409.0000;2754.1870
1410.0000;2758.8970
1411.0000;2762.3330
1412.0000;2760.5210
1413.0000;2758.9400
1414.0000;2764.5440
1415.0000;2775.3560
1416.0000;2783.9330
1417.0000;2785.8030
1418.0000;2782.9270
1419.0000;2780.8850
1420.0000;2778.2380
1421.0000;2772.4710
1422.0000;2760.8660
1423.0000;2754.1280
1424.0000;2762.7510
1425.0000;2784.7740
1426.0000;2805.1900
1427.0000;2814.9130
1428.0000;2815.9090
1429.0000;2815.0520
1430.0000;2809.5100
1431.0000;2801.2340
1432.0000;2791.7230
1433.0000;2784.4870
1434.0000;2783.4880
1435.0000;2788.3460
1436.0000;2790.0230
1437.0000;2782.9170
1438.0000;2775.5170
1439.0000;2776.3310
1440.0000;2782.9080
1441.0000;2784.8700
1442.0000;2776.3270
1443.0000;2767.8700
1444.0000;2770.1430
1445.0000;2780.5200
1446.0000;2788.2790
1447.0000;2789.1120
1448.0000;2784.1480
1449.0000;2773.4180
1450.0000;2760.4200
1451.0000;2752.0850
1452.0000;2752.4770
1453.0000;2759.6160
1454.0000;2770.4620
1455.0000;2781.4350
1456.0000;2782.9780
1457.0000;2770.4210
1458.0000;2757.2590
1459.0000;2759.1950
1460.0000;2769.1790
1461.0000;2772.5850
1462.0000;2764.7420
1463.0000;2756.9170
1464.0000;2757.8460
1465.0000;2764.3940
1466.0000;2770.5470
1467.0000;2774.5310
1468.0000;2775.2000
1469.0000;2771.3070
1470.0000;2764.5310
1471.0000;2760.2390
1472.0000;2760.1810
1473.0000;2760.3250
1474.0000;2755.5540
1475.0000;2751.7190
1476.0000;2755.2540
1477.0000;2765.8340
1478.0000;2772.7130
1479.0000;2765.5650
1480.0000;2754.1510
1481.0000;2753.8860
1482.0000;2764.4520
1483.0000;2771.1400
1484.0000;2763.4320
1485.0000;2752.3550
1486.0000;2750.0490
1487.0000;2756.3980
1488.0000;2762.7730
1489.0000;2763.8110
1490.0000;2762.7720
1491.0000;2762.7690
1492.0000;2762.8680
1493.0000;2762.2180
1494.0000;2760.5250
1495.0000;2758.4860
1496.0000;2754.9840
1497.0000;2752.9550
1498.0000;2757.3500
1499.0000;2770.7240
1500.0000;2782.6200
1501.0000;2784.2510
1502.0000;2777.0450
1503.0000;2769.4510
1504.0000;2764.6780
1505.0000;2764.2660
1506.0000;2773.0840
1507.0000;2783.6440
1508.0000;2781.1340
1509.0000;2762.3830
1510.0000;2749.6890
1511.0000;2762.8980
1512.0000;2786.8680
1513.0000;2798.1000
1514.0000;2792.8260
1515.0000;2783.6290
1516.0000;2780.1250
1517.0000;2777.8430
1518.0000;2774.1970
1519.0000;2771.4620
1520.0000;2773.8230
1521.0000;2783.8890
1522.0000;2796.9500
1523.0000;2806.8130
1524.0000;2812.4950
1525.0000;2818.3430
1526.0000;2826.3520
1527.0000;2829.7740
1528.0000;2825.6180
1529.0000;2815.5180
1530.0000;2809.1940
1531.0000;2810.7450
1532.0000;2814.8570
1533.0000;2816.0510
1534.0000;2815.8450
1535.0000;2814.9350
1536.0000;2813.4230
1537.0000;2811.7440
1538.0000;2809.6430
1539.0000;2809.0850
1540.0000;2812.2760
1541.0000;2818.7870
1542.0000;2823.0860
1543.0000;2820.7170
1544.0000;2816.3630
1545.0000;2818.0180
1546.0000;2824.2500
1547.0000;2827.5340
1548.0000;2823.4910
1549.0000;2817.3960
1550.0000;2814.8210
1551.0000;2815.6440
1552.0000;2817.6840
1553.0000;2820.0760
1554.0000;2824.1930
1555.0000;2833.9710
1556.0000;2841.8590
1557.0000;2836.9460
1558.0000;2816.3630
1559.0000;2797.1890
1560.0000;2794.1660
1561.0000;2801.7620
1562.0000;2806.6780
1563.0000;2808.0480
1564.0000;2808.6570
1565.0000;2809.8450
1566.0000;2809.0250
1567.0000;2803.4040
1568.0000;2795.3490
1569.0000;2792.8580
1570.0000;2800.9390
1571.0000;2810.9680
1572.0000;2814.0830
1573.0000;2809.9690
1574.0000;2801.3400
1575.0000;2789.2700
1576.0000;2779.5900
1577.0000;2775.2970
1578.0000;2779.7680
1579.0000;2792.3350
1580.0000;2810.7020
1581.0000;2823.4420
1582.0000;2822.0960
1583.0000;2810.1040
1584.0000;2796.7950
1585.0000;2785.1630
1586.0000;2781.4600
1587.0000;2791.1970
1588.0000;2805.0250
1589.0000;2807.2370
1590.0000;2801.1560
1591.0000;2797.8440
1592.0000;2801.4240
1593.0000;2805.5220
1594.0000;2805.1010
1595.0000;2802.2300
1596.0000;2800.0070
1597.0000;2799.4700
1598.0000;2801.9060
1599.0000;2810.3590
1600.0000;2817.8690
1601.0000;2816.2170
1602.0000;2805.6170
1603.0000;2796.6400
1604.0000;2796.7100
1605.0000;2799.2990
1606.0000;2797.1190
1607.0000;2792.1310
1608.0000;2787.2920
1609.0000;2783.8260
1610.0000;2781.2570
1611.0000;2776.8900
1612.0000;2774.9060
1613.0000;2777.9170
1614.0000;2786.5450
1615.0000;2794.7360
1616.0000;2799.4190
1617.0000;2798.6560
1618.0000;2791.6830
1619.0000;2780.2650
1620.0000;2773.0880
1621.0000;2775.6410
1622.0000;2784.3440
1623.0000;2794.6080
1624.0000;2804.0980
1625.0000;2807.4300
1626.0000;2801.8900
1627.0000;2796.6080
1628.0000;2801.5010
1629.0000;2810.0580
1630.0000;2815.8520
1631.0000;2817.1050
1632.0000;2816.6990
1633.0000;2816.4750
1634.0000;2814.3350
1635.0000;2809.4730
1636.0000;2803.6310
1637.0000;2799.8600
1638.0000;2800.1850
1639.0000;2801.8750
1640.0000;2799.9890
1641.0000;2798.6460
1642.0000;2802.6060
1643.0000;2811.5760
1644.0000;2816.7870
1645.0000;2812.8450
1646.0000;2803.6370
1647.0000;2794.2280
1648.0000;2787.0420
1649.0000;2783.7680
1650.0000;2786.5220
1651.0000;2791.6000
1652.0000;2793.6520
1653.0000;2793.7490
1654.0000;2792.0490
1655.0000;2789.2260
1656.0000;2791.0360
1657.0000;2803.2760
1658.0000;2816.8270
1659.0000;2822.9160
1660.0000;2819.6760
1661.0000;2815.1890
1662.0000;2813.0750
1663.0000;2807.8050
1664.0000;2794.3240
1665.0000;2778.6580
1666.0000;2767.9710
1667.0000;2765.5490
1668.0000;2766.2870
1669.0000;2763.6190
1670.0000;2763.5540
1671.0000;2769.2460
1672.0000;2778.3610
1673.0000;2782.3680
1674.0000;2777.1270
1675.0000;2767.2110
1676.0000;2756.9030
1677.0000;2749.0930
1678.0000;2748.4640
1679.0000;2756.6570
1680.0000;2764.5260
1681.0000;2764.9980
1682.0000;2761.6410
1683.0000;2759.5340
1684.0000;2757.8850
1685.0000;2754.4380
1686.0000;2748.4890
1687.0000;2746.5890
1688.0000;2754.6250
1689.0000;2767.3680
1690.0000;2776.3650
1691.0000;2777.8090
1692.0000;2773.9190
1693.0000;2766.3960
1694.0000;2756.8810
1695.0000;2750.4910
1696.0000;2747.3480
1697.0000;2741.2610
1698.0000;2731.0440
1699.0000;2725.7000
1700.0000;2731.5240
1701.0000;2743.1030
1702.0000;2747.6750
1703.0000;2744.0190
1704.0000;2740.3130
1705.0000;2741.1260
1706.0000;2742.3650
1707.0000;2741.5810
1708.0000;2738.7480
1709.0000;2733.9570
1710.0000;2727.6820
1711.0000;2721.1680
1712.0000;2715.0280
1713.0000;2710.4170
1714.0000;2704.9150
1715.0000;2700.5450
1716.0000;2698.0630
1717.0000;2698.2340
1718.0000;2697.9680
1719.0000;2690.3410
1720.0000;2682.2500
1721.0000;2682.8240
1722.0000;2693.4680
1723.0000;2702.7620
1724.0000;2701.9960
1725.0000;2698.3310
1726.0000;2700.3050
1727.0000;2706.4830
1728.0000;2714.0930
1729.0000;2721.6880
1730.0000;2725.8530
1731.0000;2724.7760
1732.0000;2719.3780
1733.0000;2714.7380
1734.0000;2712.0670
1735.0000;2713.2160
1736.0000;2720.2040
1737.0000;2724.1290
1738.0000;2713.5110
1739.0000;2696.9120
1740.0000;2689.0770
1741.0000;2693.7810
1742.0000;2700.8080
1743.0000;2701.9150
1744.0000;2704.5740
1745.0000;2717.4730
1746.0000;2732.5190
1747.0000;2734.4940
1748.0000;2717.3800
1749.0000;2701.3010
1750.0000;2703.7820
1751.0000;2713.3750
1752.0000;2713.3160
1753.0000;2705.9640
1754.0000;2693.2080
1755.0000;2671.7230
1756.0000;2712.1520
1757.0000;2922.3840
1758.0000;3142.4460
1759.0000;3151.6260
1760.0000;2917.0700
1761.0000;2708.9720
1762.0000;2682.2560
1763.0000;2730.7230
1764.0000;2728.3470
1765.0000;2719.6130
1766.0000;2717.4460
1767.0000;2723.9800
1768.0000;2729.9750
1769.0000;2728.0590
1770.0000;2723.7070
1771.0000;2722.1030
1772.0000;2723.1590
1773.0000;2726.7890
1774.0000;2732.7000
1775.0000;2732.1510
1776.0000;2716.8070
1777.0000;2697.8040
1778.0000;2691.6120
1779.0000;2698.2540
1780.0000;2702.4250
1781.0000;2698.2660
1782.0000;2695.6000
1783.0000;2702.5580
1784.0000;2711.3410
1785.0000;2711.8970
1786.0000;2704.0780
1787.0000;2699.2530
1788.0000;2703.3410
1789.0000;2708.0500
1790.0000;2706.2480
1791.0000;2700.3310
1792.0000;2693.6990
1793.0000;2687.9600
1794.0000;2683.5720
1795.0000;2680.6660
1796.0000;2681.0690
1797.0000;2684.2500
1798.0000;2689.2050
1799.0000;2691.9840
1800.0000;2691.2140
1801.0000;2689.3710
1802.0000;2688.0660
1803.0000;2687.2400
1804.0000;2688.2150
1805.0000;2689.5850
1806.0000;2687.3660
1807.0000;2681.1890
1808.0000;2678.1150
1809.0000;2684.4550
1810.0000;2690.2100
1811.0000;2682.9590
1812.0000;2666.7060
1813.0000;2653.7640
1814.0000;2648.6640
1815.0000;2648.8710
1816.0000;2652.1920
1817.0000;2656.3080
1818.0000;2652.3330
1819.0000;2644.0750
1820.0000;2643.1830
1821.0000;2653.1940
1822.0000;2661.7730
1823.0000;2659.6460
1824.0000;2651.1770
1825.0000;2641.2060
1826.0000;2632.3590
1827.0000;2628.3630
1828.0000;2631.5970
1829.0000;2638.3960
1830.0000;2644.0090
1831.0000;2648.7570
1832.0000;2652.3710
1833.0000;2653.6100
1834.0000;2653.9510
1835.0000;2653.6860
1836.0000;2652.3750
1837.0000;2650.1040
1838.0000;2648.4690
1839.0000;2650.1120
1840.0000;2653.8760
1841.0000;2654.4400
1842.0000;2649.7940
1843.0000;2644.2840
1844.0000;2641.3450
1845.0000;2640.3320
1846.0000;2639.5800
1847.0000;2639.4390
1848.0000;2637.8050
1849.0000;2634.1170
1850.0000;2633.6950
1851.0000;2640.6220
1852.0000;2650.4610
1853.0000;2657.1460
1854.0000;2659.4770
1855.0000;2660.6940
1856.0000;2661.1320
1857.0000;2661.6330
1858.0000;2663.6250
1859.0000;2667.3020
1860.0000;2675.2160
1861.0000;2683.7870
1862.0000;2686.8600
1863.0000;2681.7410
1864.0000;2674.5640
1865.0000;2671.5440
1866.0000;2669.0590
1867.0000;2662.0170
1868.0000;2654.6970
1869.0000;2654.0070
1870.0000;2661.8430
1871.0000;2666.1080
1872.0000;2655.6350
1873.0000;2644.4610
1874.0000;2647.7040
1875.0000;2662.5480
1876.0000;2675.9370
1877.0000;2683.7950
1878.0000;2687.3690
1879.0000;2687.5670
1880.0000;2682.6920
1881.0000;2674.9890
1882.0000;2666.8380
1883.0000;2663.6920
1884.0000;2667.4460
1885.0000;2671.1320
1886.0000;2669.5730
1887.0000;2670.1960
1888.0000;2682.9440
1889.0000;2696.8950
1890.0000;2693.8760
1891.0000;2673.3320
1892.0000;2655.1260
1893.0000;2650.5780
1894.0000;2653.5100
1895.0000;2655.9030
1896.0000;2659.9660
1897.0000;2660.5700
1898.0000;2658.6270
1899.0000;2661.6170
1900.0000;2672.4560
1901.0000;2680.3360
1902.0000;2676.0630
1903.0000;2665.4950
1904.0000;2657.9370
1905.0000;2655.8050
1906.0000;2659.5590
1907.0000;2669.9660
1908.0000;2678.8350
1909.0000;2680.0710
1910.0000;2675.6870
1911.0000;2670.3000
1912.0000;2665.0190
1913.0000;2664.5090
1914.0000;2669.8720
1915.0000;2672.7330
1916.0000;2666.7110
1917.0000;2659.3740
1918.0000;2658.5700
1919.0000;2661.3950
1920.0000;2660.1310
1921.0000;2654.9720
1922.0000;2651.4760
1923.0000;2652.5010
1924.0000;2655.0530
1925.0000;2655.0320
1926.0000;2655.0680
1927.0000;2658.0590
1928.0000;2662.9780
1929.0000;2667.3120
1930.0000;2669.3300
1931.0000;2667.2090
1932.0000;2659.6990
1933.0000;2650.8070
1934.0000;2647.3310
1935.0000;2648.9150
1936.0000;2648.3340
1937.0000;2645.0240
1938.0000;2646.4040
1939.0000;2656.4390
1940.0000;2669.6910
1941.0000;2681.6950
1942.0000;2688.8100
1943.0000;2689.3160
1944.0000;2682.7940
1945.0000;2680.8480
1946.0000;2690.0830
1947.0000;2697.8370
1948.0000;2692.8720
1949.0000;2682.9750
1950.0000;2681.5090
1951.0000;2686.4080
1952.0000;2686.5960
1953.0000;2679.0820
1954.0000;2673.9620
1955.0000;2678.0890
1956.0000;2684.4790
1957.0000;2684.4210
1958.0000;2679.8460
1959.0000;2674.5290
1960.0000;2670.7250
1961.0000;2672.9490
1962.0000;2684.0390
1963.0000;2697.7000
1964.0000;2709.5890
1965.0000;2714.9120
1966.0000;2711.2220
1967.0000;2699.1620
1968.0000;2691.0850
1969.0000;2691.7130
1970.0000;2695.3930
1971.0000;2697.9330
1972.0000;2699.9580
1973.0000;2700.0740
1974.0000;2698.5410
1975.0000;2696.8000
1976.0000;2695.9650
1977.0000;2699.6330
1978.0000;2709.8130
1979.0000;2717.8000
1980.0000;2717.6990
1981.0000;2710.2770
1982.0000;2699.5370
1983.0000;2689.7350
1984.0000;2691.3680
1985.0000;2707.3150
1986.0000;2717.7700
1987.0000;2708.0030
1988.0000;2692.5900
1989.0000;2685.0350
1990.0000;2686.2890
1991.0000;2694.9140
1992.0000;2709.1010
1993.0000;2717.0910
1994.0000;2712.1630
1995.0000;2707.0050
1996.0000;2715.4150
1997.0000;2724.9800
1998.0000;2722.0730
1999.0000;2711.3220
2000.0000;2709.9100
2001.0000;2719.7760
2002.0000;2721.6200
2003.0000;2703.9420
2004.0000;2687.2930
2005.0000;2690.8210
2006.0000;2705.5210
2007.0000;2713.0380
2008.0000;2713.2940
2009.0000;2714.1230
2010.0000;2716.7380
2011.0000;2716.0920
2012.0000;2709.5600
2013.0000;2703.4570
2014.0000;2707.0770
2015.0000;2713.2770
2016.0000;2707.2690
2017.0000;2690.5740
2018.0000;2678.4140
2019.0000;2678.1050
2020.0000;2682.0760
2021.0000;2683.0670
2022.0000;2684.6810
2023.0000;2686.5830
2024.0000;2689.2240
2025.0000;2694.9350
2026.0000;2702.0480
2027.0000;2705.8000
2028.0000;2703.5290
2029.0000;2698.9330
2030.0000;2695.6480
2031.0000;2695.6950
2032.0000;2703.5360
2033.0000;2715.0440
2034.0000;2718.1410
2035.0000;2710.5690
2036.0000;2703.0470
2037.0000;2702.0530
2038.0000;2700.6520
2039.0000;2691.6840
2040.0000;2682.7560
2041.0000;2682.0790
2042.0000;2687.3750
2043.0000;2685.4710
2044.0000;2675.1750
2045.0000;2670.0140
2046.0000;2677.7860
2047.0000;2688.0000
2048.0000;2691.6830
2049.0000;2689.2900
2050.0000;2682.1430
2051.0000;2672.4140
2052.0000;2669.2050
2053.0000;2674.6760
2054.0000;2678.4530
2055.0000;2673.8120
2056.0000;2667.4000
2057.0000;2663.3150
2058.0000;2663.7030
2059.0000;2671.2410
2060.0000;2682.8410
2061.0000;2688.8520
2062.0000;2685.5070
2063.0000;2680.6300
2064.0000;2679.3880
2065.0000;2678.6000
2066.0000;2676.8090
2067.0000;2674.7560
2068.0000;2672.5850
2069.0000;2670.0850
2070.0000;2665.1810
2071.0000;2658.2940
2072.0000;2653.5690
2073.0000;2652.9650
2074.0000;2655.6570
2075.0000;2659.1860
2076.0000;2662.5420
2077.0000;2663.0560
2078.0000;2660.0610
2079.0000;2654.8460
2080.0000;2648.7000
2081.0000;2644.1590
2082.0000;2643.3590
2083.0000;2645.0320
2084.0000;2646.4070
2085.0000;2648.3920
2086.0000;2649.7130
2087.0000;2651.2500
2088.0000;2656.1730
2089.0000;2663.8150
2090.0000;2669.6130
2091.0000;2671.1000
2092.0000;2667.6980
2093.0000;2658.8340
2094.0000;2651.1810
2095.0000;2654.0400
2096.0000;2664.0640
2097.0000;2670.1330
2098.0000;2670.0800
2099.0000;2666.9010
2100.0000;2661.4520
2101.0000;2656.5960
2102.0000;2655.2730
2103.0000;2656.3720
2104.0000;2657.8440
2105.0000;2659.0200
2106.0000;2656.0730
2107.0000;2651.1330
2108.0000;2652.3050
2109.0000;2661.6670
2110.0000;2670.2750
2111.0000;2672.8450
2112.0000;2668.8000
2113.0000;2657.1940
2114.0000;2645.6030
2115.0000;2645.9570
2116.0000;2656.2850
2117.0000;2660.6720
2118.0000;2656.1790
2119.0000;2651.6740
2120.0000;2650.9930
2121.0000;2652.4990
2122.0000;2655.9960
2123.0000;2658.8860
2124.0000;2657.4590
2125.0000;2652.8820
2126.0000;2649.5170
2127.0000;2647.8190
2128.0000;2645.0720
2129.0000;2640.9830
2130.0000;2636.8770
2131.0000;2632.7470
2132.0000;2631.4680
2133.0000;2633.0870
2134.0000;2638.7750
2135.0000;2647.5870
2136.0000;2656.3330
2137.0000;2659.5950
2138.0000;2655.3610
2139.0000;2650.6630
2140.0000;2649.4660
2141.0000;2649.4220
2142.0000;2650.3210
2143.0000;2649.5500
2144.0000;2642.8920
2145.0000;2633.3150
2146.0000;2625.1400
2147.0000;2621.2090
2148.0000;2620.9380
2149.0000;2624.8010
2150.0000;2632.6250
2151.0000;2643.7030
2152.0000;2650.4000
2153.0000;2646.7880
2154.0000;2635.6150
2155.0000;2626.4560
2156.0000;2621.0920
2157.0000;2620.4780
2158.0000;2625.2940
2159.0000;2628.6230
2160.0000;2626.9240
2161.0000;2625.1110
2162.0000;2626.4670
2163.0000;2627.8860
2164.0000;2626.5500
2165.0000;2623.8540
2166.0000;2622.7830
2167.0000;2622.0930
2168.0000;2616.9940
2169.0000;2607.7610
2170.0000;2599.1210
2171.0000;2594.3490
2172.0000;2595.6670
2173.0000;2604.1580
2174.0000;2614.4240
2175.0000;2618.7440
2176.0000;2617.5640
2177.0000;2616.8740
2178.0000;2615.1630
2179.0000;2610.6200
2180.0000;2603.7180
2181.0000;2595.4810
2182.0000;2587.5470
2183.0000;2583.3870
2184.0000;2583.1300
2185.0000;2589.5600
2186.0000;2604.0860
2187.0000;2617.6130
2188.0000;2616.3400
2189.0000;2600.7610
2190.0000;2590.7910
2191.0000;2591.8820
2192.0000;2595.2130
2193.0000;2597.1360
2194.0000;2597.0700
2195.0000;2593.1910
2196.0000;2587.0160
2197.0000;2578.4380
2198.0000;2573.0850
2199.0000;2577.3590
2200.0000;2589.2140
2201.0000;2594.6750
2202.0000;2589.8980
2203.0000;2588.2110
2204.0000;2595.8220
2205.0000;2600.6740
2206.0000;2595.1610
2207.0000;2584.2090
2208.0000;2573.6850
2209.0000;2566.2250
2210.0000;2562.9130
2211.0000;2566.4580
2212.0000;2574.8180
2213.0000;2585.9060
2214.0000;2594.5160
2215.0000;2596.4000
2216.0000;2594.0250
2217.0000;2591.3970
2218.0000;2584.3120
2219.0000;2570.7740
2220.0000;2556.4910
2221.0000;2547.8050
2222.0000;2546.6100
2223.0000;2544.4520
2224.0000;2542.2920
2225.0000;2542.6110
2226.0000;2545.8370
2227.0000;2550.8070
2228.0000;2555.8300
2229.0000;2560.6500
2230.0000;2565.2060
2231.0000;2569.0600
2232.0000;2575.8830
2233.0000;2580.9430
2234.0000;2579.6150
2235.0000;2572.4130
2236.0000;2569.0220
2237.0000;2571.5640
2238.0000;2571.2540
2239.0000;2564.0760
2240.0000;2556.2390
2241.0000;2551.4780
2242.0000;2550.4670
2243.0000;2552.9410
2244.0000;2555.8590
2245.0000;2549.2310
2246.0000;2538.4220
2247.0000;2538.9840
2248.0000;2551.3000
2249.0000;2556.5800
2250.0000;2548.1270
2251.0000;2539.2890
2252.0000;2538.1380
2253.0000;2538.6050
2254.0000;2534.7670
2255.0000;2532.2210
2256.0000;2535.6400
2257.0000;2541.0870
2258.0000;2540.2870
2259.0000;2533.7190
2260.0000;2527.1490
2261.0000;2522.8410
2262.0000;2520.6240
2263.0000;2521.1600
2264.0000;2526.4710
2265.0000;2537.7270
2266.0000;2544.9300
2267.0000;2537.8080
2268.0000;2525.2400
2269.0000;2521.3100
2270.0000;2525.9730
2271.0000;2535.7040
2272.0000;2547.7500
2273.0000;2552.5830
2274.0000;2547.6240
2275.0000;2544.0810
2276.0000;2547.1630
2277.0000;2545.7480
2278.0000;2532.3980
2279.0000;2519.9570
2280.0000;2521.6580
2281.0000;2529.0590
2282.0000;2525.7080
2283.0000;2518.5640
2284.0000;2521.5980
2285.0000;2531.4560
2286.0000;2530.6320
2287.0000;2516.7140
2288.0000;2506.4480
2289.0000;2508.1490
2290.0000;2513.6510
2291.0000;2517.7220
2292.0000;2520.7010
2293.0000;2520.9030
2294.0000;2519.3540
2295.0000;2519.8410
2296.0000;2520.3900
2297.0000;2517.8400
2298.0000;2513.7560
2299.0000;2514.1390
2300.0000;2518.9000
2301.0000;2519.6440
2302.0000;2513.2470
2303.0000;2504.0380
2304.0000;2494.2840
2305.0000;2489.2450
2306.0000;2491.0710
2307.0000;2499.4650
2308.0000;2510.4090
2309.0000;2520.4300
2310.0000;2524.8430
2311.0000;2521.9080
2312.0000;2517.8970
2313.0000;2512.4470
2314.0000;2503.7160
2315.0000;2493.1710
2316.0000;2486.7030
2317.0000;2488.2410
2318.0000;2487.9180
2319.0000;2475.7490
2320.0000;2467.5840
2321.0000;2477.2340
2322.0000;2494.3360
2323.0000;2504.3820
2324.0000;2506.4550
2325.0000;2503.9530
2326.0000;2499.2040
2327.0000;2506.1410
2328.0000;2522.8440
2329.0000;2528.5620
2330.0000;2515.1280
2331.0000;2498.6720
2332.0000;2487.9340
2333.0000;2483.1640
2334.0000;2484.1390
2335.0000;2489.8000
2336.0000;2491.6200
2337.0000;2494.6810
2338.0000;2504.5940
2339.0000;2515.2190
2340.0000;2521.3710
2341.0000;2517.8050
2342.0000;2501.7140
2343.0000;2476.3920
2344.0000;2463.5550
2345.0000;2472.5380
2346.0000;2480.9160
2347.0000;2475.7160
2348.0000;2473.6340
2349.0000;2485.5520
2350.0000;2497.6000
2351.0000;2495.9670
2352.0000;2487.2310
2353.0000;2482.6030
2354.0000;2483.0800
2355.0000;2491.0090
2356.0000;2503.0600
2357.0000;2508.8050
2358.0000;2504.7060
2359.0000;2495.5420
2360.0000;2483.2410
2361.0000;2472.5490
2362.0000;2467.5300
2363.0000;2466.7610
2364.0000;2467.8730
2365.0000;2470.3860
2366.0000;2470.9110
2367.0000;2470.0360
2368.0000;2467.0330
2369.0000;2464.5390
2370.0000;2467.7560
2371.0000;2473.4480
2372.0000;2474.4080
2373.0000;2467.6760
2374.0000;2447.8590
2375.0000;2421.1170
2376.0000;2419.7140
2377.0000;2455.3330
2378.0000;2485.4180
2379.0000;2482.9060
2380.0000;2475.9100
2381.0000;2488.3380
2382.0000;2496.5460
2383.0000;2482.1280
2384.0000;2462.9770
2385.0000;2464.7130
2386.0000;2477.7120
2387.0000;2479.1290
2388.0000;2472.2950
2389.0000;2470.4160
2390.0000;2472.8610
2391.0000;2468.6280
2392.0000;2457.9430
2393.0000;2454.1730
2394.0000;2462.2030
2395.0000;2468.3150
2396.0000;2464.4490
2397.0000;2458.6070
2398.0000;2456.9350
2399.0000;2454.7950
2400.0000;2445.7070
2401.0000;2440.6750
2402.0000;2450.0680
2403.0000;2467.4630
2404.0000;2480.0440
2405.0000;2482.0470
2406.0000;2468.7080
2407.0000;2444.9720
2408.0000;2438.0190
2409.0000;2451.0080
2410.0000;2456.9770
2411.0000;2447.8250
2412.0000;2439.4470
2413.0000;2438.1760
2414.0000;2437.7320
2415.0000;2434.6100
2416.0000;2431.1970
2417.0000;2425.9780
2418.0000;2426.4000
2419.0000;2441.2700
2420.0000;2456.1120
2421.0000;2449.9740
2422.0000;2432.8530
2423.0000;2429.3220
2424.0000;2436.8230
2425.0000;2441.0980
2426.0000;2441.0820
2427.0000;2439.8690
2428.0000;2437.2890
2429.0000;2432.6110
2430.0000;2426.5360
2431.0000;2421.8530
2432.0000;2420.6650
2433.0000;2420.1360
2434.0000;2418.0240
2435.0000;2415.5540
2436.0000;2412.2980
2437.0000;2410.8720
2438.0000;2411.6800
2439.0000;2416.6100
2440.0000;2427.1380
2441.0000;2436.9870
2442.0000;2436.4550
2443.0000;2428.3900
2444.0000;2428.1810
2445.0000;2433.4350
2446.0000;2432.1160
2447.0000;2423.4830
2448.0000;2412.4080
2449.0000;2403.3380
2450.0000;2403.9550
2451.0000;2417.4160
2452.0000;2425.0140
2453.0000;2415.8760
2454.0000;2409.0730
2455.0000;2417.9100
2456.0000;2428.6720
2457.0000;2430.9430
2458.0000;2426.6000
2459.0000;2418.3400
2460.0000;2409.5130
2461.0000;2406.1500
2462.0000;2407.9290
2463.0000;2409.8290
2464.0000;2411.3990
2465.0000;2408.8850
2466.0000;2404.4980
2467.0000;2406.9850
2468.0000;2414.9440
2469.0000;2416.3250
2470.0000;2409.0750
2471.0000;2406.8540
2472.0000;2413.5020
2473.0000;2416.8210
2474.0000;2411.7460
2475.0000;2401.2200
2476.0000;2387.3850
2477.0000;2378.0250
2478.0000;2379.4010
2479.0000;2383.8170
2480.0000;2378.7500
2481.0000;2376.1420
2482.0000;2386.5140
2483.0000;2402.1880
2484.0000;2415.1060
2485.0000;2418.4660
2486.0000;2408.2430
2487.0000;2389.7140
2488.0000;2380.8400
2489.0000;2384.1830
2490.0000;2392.2450
2491.0000;2402.1190
2492.0000;2404.0610
2493.0000;2396.5210
2494.0000;2392.8320
2495.0000;2396.3650
2496.0000;2396.9070
2497.0000;2391.5230
2498.0000;2391.6180
2499.0000;2402.3570
2500.0000;2412.3370
2501.0000;2414.1900
2502.0000;2410.0090
2503.0000;2402.3480
2504.0000;2394.6050
2505.0000;2391.9900
2506.0000;2392.4960
2507.0000;2389.8660
2508.0000;2388.9610
2509.0000;2393.4790
2510.0000;2399.5620
2511.0000;2401.2930
2512.0000;2397.9430
2513.0000;2391.6660
2514.0000;2384.1380
2515.0000;2378.2300
2516.0000;2376.7750
2517.0000;2381.3190
2518.0000;2389.4110
2519.0000;2387.3830
2520.0000;2373.5660
2521.0000;2365.3490
2522.0000;2369.0910
2523.0000;2371.2920
2524.0000;2366.9210
2525.0000;2361.3030
2526.0000;2357.0480
2527.0000;2354.7730
2528.0000;2354.6810
2529.0000;2358.9410
2530.0000;2368.3140
2531.0000;2375.2710
2532.0000;2372.5710
2533.0000;2365.5300
2534.0000;2364.0000
2535.0000;2360.7860
2536.0000;2346.9260
2537.0000;2332.5430
2538.0000;2327.5800
2539.0000;2333.1740
2540.0000;2343.8070
2541.0000;2354.3410
2542.0000;2354.5700
2543.0000;2344.5000
2544.0000;2333.0990
2545.0000;2324.6820
2546.0000;2323.6340
2547.0000;2330.0860
2548.0000;2330.2820
2549.0000;2323.1470
2550.0000;2320.7600
2551.0000;2325.1990
2552.0000;2325.1740
2553.0000;2317.8120
2554.0000;2313.3780
2555.0000;2316.0060
2556.0000;2319.3230
2557.0000;2319.9920
2558.0000;2323.4060
2559.0000;2331.8860
2560.0000;2336.7040
2561.0000;2331.9850
2562.0000;2324.1200
2563.0000;2319.9240
2564.0000;2318.5030
2565.0000;2319.5340
2566.0000;2320.5600
2567.0000;2316.2790
2568.0000;2311.3660
2569.0000;2310.4280
2570.0000;2312.0740
2571.0000;2313.7230
2572.0000;2313.1930
2573.0000;2303.7450
2574.0000;2295.0940
2575.0000;2306.1340
2576.0000;2325.2160
2577.0000;2324.5730
2578.0000;2308.0840
2579.0000;2300.0490
2580.0000;2301.1570
2581.0000;2301.8800
2582.0000;2302.9800
2583.0000;2307.6270
2584.0000;2313.3200
2585.0000;2310.9250
2586.0000;2300.2980
2587.0000;2296.6830
2588.0000;2303.5520
2589.0000;2308.1390
2590.0000;2306.6990
2591.0000;2304.6350
2592.0000;2303.7740
2593.0000;2304.2890
2594.0000;2306.6040
2595.0000;2311.3530
2596.0000;2318.1310
2597.0000;2322.0710
2598.0000;2320.4180
2599.0000;2313.6260
2600.0000;2302.6910
2601.0000;2294.3180
2602.0000;2293.9590
2603.0000;2297.8340
2604.0000;2300.5680
2605.0000;2302.7170
2606.0000;2303.4050
2607.0000;2301.7030
2608.0000;2297.0060
2609.0000;2293.8250
2610.0000;2299.3830
2611.0000;2303.2450
2612.0000;2289.5510
2613.0000;2274.7460
2614.0000;2281.8450
2615.0000;2297.0090
2616.0000;2296.1980
2617.0000;2288.4170
2618.0000;2291.6930
2619.0000;2295.6640
2620.0000;2280.1950
2621.0000;2261.3350
2622.0000;2271.4760
2623.0000;2298.2220
2624.0000;2304.8050
2625.0000;2294.1870
2626.0000;2289.3460
2627.0000;2287.6710
2628.0000;2277.8050
2629.0000;2266.4560
2630.0000;2270.5160
2631.0000;2285.7880
2632.0000;2283.9770
2633.0000;2265.6390
2634.0000;2256.9030
2635.0000;2262.3540
2636.0000;2274.0760
2637.0000;2287.1560
2638.0000;2291.0300
2639.0000;2283.0050
2640.0000;2277.0400
2641.0000;2277.1830
2642.0000;2277.6750
2643.0000;2278.3990
2644.0000;2284.8470
2645.0000;2296.1130
2646.0000;2299.2490
2647.0000;2289.3960
2648.0000;2277.3310
2649.0000;2269.3450
2650.0000;2264.9650
2651.0000;2265.5300
2652.0000;2268.0540
2653.0000;2270.2940
2654.0000;2271.2730
2655.0000;2269.9590
2656.0000;2271.5730
2657.0000;2278.3890
2658.0000;2277.1210
2659.0000;2261.1930
2660.0000;2249.9830
2661.0000;2256.2080
2662.0000;2261.6840
2663.0000;2254.5300
2664.0000;2248.3330
2665.0000;2251.2410
2666.0000;2253.3480
2667.0000;2247.8310
2668.0000;2246.3290
2669.0000;2256.5170
2670.0000;2264.9450
2671.0000;2261.9550
2672.0000;2254.7260
2673.0000;2250.1890
2674.0000;2246.1990
2675.0000;2242.4180
2676.0000;2239.7110
2677.0000;2236.6350
2678.0000;2236.5350
2679.0000;2240.8370
2680.0000;2244.2220
2681.0000;2240.5430
2682.0000;2235.8850
2683.0000;2236.3310
2684.0000;2237.1600
2685.0000;2234.1050
2686.0000;2229.5020
2687.0000;2225.1000
2688.0000;2221.4560
2689.0000;2217.1180
2690.0000;2217.1380
2691.0000;2225.7960
2692.0000;2232.6620
2693.0000;2223.9400
2694.0000;2215.5050
2695.0000;2227.9870
2696.0000;2238.3320
2697.0000;2219.4260
2698.0000;2197.1570
2699.0000;2200.6620
2700.0000;2213.7030
2701.0000;2213.8890
2702.0000;2211.5450
2703.0000;2216.2310
2704.0000;2220.5410
2705.0000;2218.7930
2706.0000;2213.3980
2707.0000;2208.6440
2708.0000;2204.9090
2709.0000;2202.0030
2710.0000;2201.2720
2711.0000;2201.0100
2712.0000;2202.2280
2713.0000;2204.0840
2714.0000;2205.8170
2715.0000;2205.5870
2716.0000;2206.1950
2717.0000;2213.3430
2718.0000;2217.3500
2719.0000;2207.3260
2720.0000;2195.5960
2721.0000;2198.4730
2722.0000;2205.7360
2723.0000;2203.2440
2724.0000;2197.6310
2725.0000;2195.9200
2726.0000;2194.1620
2727.0000;2186.5090
2728.0000;2181.9880
2729.0000;2188.2250
2730.0000;2198.0150
2731.0000;2202.2220
2732.0000;2200.1650
2733.0000;2192.3770
2734.0000;2184.3950
2735.0000;2184.2490
2736.0000;2187.1140
2737.0000;2185.9960
2738.0000;2183.4410
2739.0000;2181.3810
2740.0000;2176.6970
2741.0000;2165.4450
2742.0000;2156.4280
2743.0000;2154.8860
2744.0000;2160.5990
2745.0000;2169.8380
2746.0000;2177.2280
2747.0000;2175.8290
2748.0000;2172.4120
2749.0000;2174.1480
2750.0000;2180.1320
2751.0000;2191.3190
2752.0000;2195.2880
2753.0000;2181.0590
2754.0000;2170.2170
2755.0000;2181.7640
2756.0000;2189.9250
2757.0000;2174.2210
2758.0000;2158.5780
2759.0000;2160.1360
2760.0000;2169.3520
2761.0000;2179.1460
2762.0000;2182.2450
2763.0000;2171.9980
2764.0000;2163.0440
2765.0000;2166.0300
2766.0000;2170.9040
2767.0000;2171.8180
2768.0000;2172.6630
2769.0000;2174.4080
2770.0000;2175.4900
2771.0000;2175.2840
2772.0000;2174.5880
2773.0000;2173.9440
2774.0000;2172.0530
2775.0000;2168.6820
2776.0000;2163.2200
2777.0000;2156.0410
2778.0000;2147.7500
2779.0000;2140.3800
2780.0000;2142.5490
2781.0000;2155.5590
2782.0000;2166.4090
2783.0000;2168.1430
2784.0000;2163.6960
2785.0000;2154.0170
2786.0000;2145.0600
2787.0000;2140.8530
2788.0000;2140.8700
2789.0000;2145.1050
2790.0000;2146.7080
2791.0000;2144.8360
2792.0000;2145.1960
2793.0000;2146.6910
2794.0000;2141.0840
2795.0000;2131.2470
2796.0000;2128.2720
2797.0000;2133.8820
2798.0000;2141.2610
2799.0000;2146.6530
2800.0000;2143.2750
2801.0000;2134.2460
2802.0000;2131.7310
2803.0000;2135.6700
2804.0000;2140.0280
2805.0000;2143.0680
2806.0000;2140.8280
2807.0000;2137.1610
2808.0000;2142.9700
2809.0000;2149.6100
2810.0000;2141.4360
2811.0000;2130.3140
2812.0000;2135.1730
2813.0000;2145.4810
2814.0000;2143.3980
2815.0000;2137.3510
2816.0000;2137.8420
2817.0000;2140.8900
2818.0000;2141.9800
2819.0000;2144.9580
2820.0000;2154.6770
2821.0000;2157.3160
2822.0000;2141.4970
2823.0000;2126.7160
2824.0000;2129.2380
2825.0000;2137.0160
2826.0000;2140.6890
2827.0000;2143.1890
2828.0000;2144.5100
2829.0000;2142.4440
2830.0000;2136.7920
2831.0000;2129.2300
2832.0000;2122.6370
2833.0000;2123.1710
2834.0000;2132.5320
2835.0000;2137.8780
2836.0000;2134.1100
2837.0000;2129.3660
2838.0000;2126.2840
2839.0000;2122.9820
2840.0000;2120.2380
2841.0000;2118.4740
2842.0000;2117.5720
2843.0000;2113.9790
2844.0000;2107.9410
2845.0000;2098.0100
2846.0000;2091.2920
2847.0000;2099.9160
2848.0000;2119.0840
2849.0000;2127.4090
2850.0000;2126.1380
2851.0000;2128.4750
2852.0000;2130.2540
2853.0000;2132.0180
2854.0000;2127.4040
2855.0000;2108.2940
2856.0000;2089.3000
2857.0000;2088.5680
2858.0000;2094.8340
2859.0000;2085.0990
2860.0000;2081.0640
2861.0000;2099.4570
2862.0000;2116.8440
2863.0000;2114.0430
2864.0000;2106.7600
2865.0000;2107.8360
2866.0000;2110.3540
2867.0000;2111.9400
2868.0000;2110.4340
2869.0000;2104.7890
2870.0000;2096.2230
2871.0000;2087.6210
2872.0000;2086.6940
2873.0000;2095.5330
2874.0000;2102.6340
2875.0000;2104.2410
2876.0000;2104.8470
2877.0000;2103.5540
2878.0000;2096.0550
2879.0000;2087.9690
2880.0000;2096.9400
2881.0000;2115.3580
2882.0000;2113.7490
2883.0000;2098.3170
2884.0000;2092.0310
2885.0000;2092.8880
2886.0000;2091.5440
2887.0000;2093.0220
2888.0000;2101.7080
2889.0000;2108.4610
2890.0000;2102.5940
2891.0000;2094.7970
2892.0000;2099.4910
2893.0000;2099.9510
2894.0000;2082.8540
2895.0000;2070.2550
2896.0000;2077.0640
2897.0000;2079.9980
2898.0000;2067.0460
2899.0000;2067.0610
2900.0000;2088.7970
2901.0000;2096.3550
2902.0000;2079.3180
2903.0000;2069.8160
2904.0000;2074.3650
2905.0000;2073.1550
2906.0000;2067.9270
2907.0000;2075.8300
2908.0000;2090.1330
2909.0000;2082.2930
2910.0000;2061.7080
2911.0000;2062.1920
2912.0000;2074.9610
2913.0000;2074.1980
2914.0000;2068.2680
2915.0000;2070.4390
2916.0000;2073.3700
2917.0000;2069.5200
2918.0000;2064.2490
2919.0000;2062.3270
2920.0000;2062.2820
2921.0000;2062.4400
2922.0000;2066.3060
2923.0000;2074.7010
2924.0000;2074.5260
2925.0000;2060.9790
2926.0000;2054.4870
2927.0000;2061.3420
2928.0000;2062.5830
2929.0000;2055.4710
2930.0000;2051.3060
2931.0000;2052.4980
2932.0000;2057.2420
2933.0000;2062.0160
2934.0000;2057.1850
2935.0000;2048.9220
2936.0000;2055.2170
2937.0000;2064.6250
2938.0000;2054.8110
2939.0000;2039.5040
2940.0000;2036.4630
2941.0000;2039.1140
2942.0000;2038.7080
2943.0000;2039.7990
2944.0000;2043.4090
2945.0000;2045.8880
2946.0000;2045.1110
2947.0000;2042.4980
2948.0000;2039.4190
2949.0000;2041.5090
2950.0000;2048.6760
2951.0000;2045.6870
2952.0000;2033.7450
2953.0000;2034.8590
2954.0000;2046.6930
2955.0000;2046.9000
2956.0000;2038.0930
2957.0000;2033.4560
2958.0000;2033.0440
2959.0000;2035.0780
2960.0000;2037.1560
2961.0000;2033.1370
2962.0000;2029.6910
2963.0000;2033.4980
2964.0000;2037.9760
2965.0000;2037.9730
2966.0000;2033.2930
2967.0000;2024.7230
2968.0000;2019.4030
2969.0000;2021.1100
2970.0000;2020.2600
2971.0000;2016.7190
2972.0000;2025.6140
2973.0000;2041.3890
2974.0000;2033.6480
2975.0000;2010.1050
2976.0000;2008.3330
2977.0000;2021.1120
2978.0000;2024.2030
2979.0000;2021.7610
2980.0000;2018.8960
2981.0000;2018.4590
2982.0000;2026.2690
2983.0000;2029.1090
2984.0000;2017.0690
2985.0000;2006.4630
2986.0000;2007.5000
2987.0000;2010.7940
2988.0000;2012.8270
2989.0000;2013.4640
2990.0000;2012.8830
2991.0000;2016.4160
2992.0000;2022.5080
2993.0000;2025.8860
2994.0000;2024.0870
2995.0000;2018.3860
2996.0000;2009.4530
2997.0000;1998.3470
2998.0000;1992.0050
2999.0000;1993.5520
3000.0000;2001.2350
3001.0000;2008.8850
3002.0000;2015.5050
3003.0000;2018.9950
3004.0000;2018.1790
3005.0000;2013.0300
3006.0000;2003.5520
3007.0000;1993.2040
3008.0000;1990.4630
3009.0000;1995.4670
3010.0000;1993.4950
3011.0000;1987.4090
3012.0000;1987.8910
3013.0000;1989.5790
3014.0000;1979.4960
3015.0000;1971.0980
3016.0000;1979.1380
3017.0000;1989.1360
3018.0000;1987.0670
3019.0000;1983.2260
3020.0000;1983.4450
3021.0000;1980.0110
3022.0000;1972.0690
3023.0000;1972.7200
3024.0000;1982.0260
3025.0000;1981.3750
3026.0000;1971.7970
3027.0000;1968.2410
3028.0000;1971.1970
3029.0000;1976.9510
3030.0000;1979.9460
3031.0000;1970.5100
3032.0000;1961.8330
3033.0000;1969.7160
3034.0000;1970.8810
3035.0000;1950.4890
3036.0000;1939.9400
3037.0000;1952.9130
3038.0000;1960.5240
3039.0000;1955.8230
3040.0000;1955.1980
3041.0000;1959.1220
3042.0000;1962.0110
3043.0000;1960.3640
3044.0000;1948.9980
3045.0000;1936.6350
3046.0000;1935.8640
3047.0000;1943.0770
3048.0000;1951.5710
3049.0000;1954.1130
3050.0000;1944.9010
3051.0000;1937.3960
3052.0000;1938.3480
3053.0000;1939.9250
3054.0000;1940.3450
3055.0000;1939.6670
3056.0000;1938.3000
3057.0000;1939.1970
3058.0000;1939.2040
3059.0000;1929.6930
3060.0000;1921.7600
3061.0000;1930.0900
3062.0000;1938.8540
3063.0000;1931.4760
3064.0000;1929.4540
3065.0000;1943.8010
3066.0000;1951.7540
3067.0000;1944.7800
3068.0000;1939.0950
3069.0000;1937.7270
3070.0000;1937.6950
3071.0000;1937.2530
3072.0000;1928.8340
3073.0000;1921.8000
3074.0000;1929.1630
3075.0000;1941.9280
3076.0000;1947.6500
3077.0000;1948.3730
3078.0000;1945.7470
3079.0000;1941.6250
3080.0000;1938.1870
3081.0000;1931.7010
3082.0000;1924.5210
3083.0000;1926.2950
3084.0000;1934.5470
3085.0000;1933.1280
3086.0000;1928.1280
3087.0000;1933.4180
3088.0000;1939.2540
3089.0000;1934.3750
3090.0000;1932.1910
3091.0000;1941.8190
3092.0000;1947.8090
3093.0000;1944.0110
3094.0000;1944.5180
3095.0000;1949.6140
3096.0000;1946.8030
3097.0000;1937.1750
3098.0000;1931.3620
3099.0000;1927.5990
3100.0000;1916.7150
3101.0000;1910.8370
3102.0000;1918.9840
3103.0000;1925.9230
3104.0000;1919.7650
3105.0000;1918.2030
3106.0000;1926.0620
3107.0000;1923.3880
3108.0000;1910.5510
3109.0000;1907.7990
3110.0000;1913.6680
3111.0000;1914.7850
3112.0000;1912.9200
3113.0000;1910.0530
3114.0000;1908.0280
3115.0000;1909.3500
3116.0000;1906.8870
3117.0000;1897.9020
3118.0000;1894.6430
3119.0000;1901.0870
3120.0000;1911.0400
3121.0000;1919.3340
3122.0000;1918.3020
3123.0000;1909.2440
3124.0000;1900.5440
3125.0000;1895.9890
3126.0000;1899.9400
3127.0000;1902.1440
3128.0000;1894.5630
3129.0000;1888.6370
3130.0000;1888.7320
3131.0000;1884.2030
3132.0000;1877.0800
3133.0000;1878.8840
3134.0000;1888.7270
3135.0000;1899.8120
3136.0000;1905.9020
3137.0000;1902.7150
3138.0000;1894.1130
3139.0000;1886.4670
3140.0000;1886.0070
3141.0000;1895.0720
3142.0000;1901.0200
3143.0000;1897.2960
3144.0000;1879.3940
3145.0000;1857.4480
3146.0000;1850.3550
3147.0000;1856.9110
3148.0000;1863.0750
3149.0000;1869.9850
3150.0000;1874.5690
3151.0000;1875.3260
3152.0000;1871.6850
3153.0000;1863.0210
3154.0000;1853.2240
3155.0000;1853.7320
3156.0000;1862.6510
3157.0000;1868.5190
3158.0000;1866.1900
3159.0000;1852.2340
3160.0000;1834.1010
3161.0000;1820.9960
3162.0000;1823.8210
3163.0000;1844.5270
3164.0000;1855.7080
3165.0000;1852.9920
3166.0000;1861.5770
3167.0000;1874.9130
3168.0000;1880.0810
3169.0000;1877.2070
3170.0000;1872.3900
3171.0000;1866.4600
3172.0000;1862.8390
3173.0000;1861.9940
3174.0000;1863.2720
3175.0000;1857.7420
3176.0000;1847.7300
3177.0000;1846.1500
3178.0000;1849.2950
3179.0000;1842.1600
3180.0000;1837.8930
3181.0000;1847.5310
3182.0000;1855.3360
3183.0000;1851.4640
3184.0000;1849.7510
3185.0000;1852.3710
3186.0000;1848.4370
3187.0000;1839.5970
3188.0000;1832.8190
3189.0000;1831.2080
3190.0000;1835.6110
3191.0000;1838.8130
3192.0000;1833.2660
3193.0000;1827.5510
3194.0000;1826.0220
3195.0000;1825.9190
3196.0000;1828.3150
3197.0000;1836.5340
3198.0000;1844.4760
3199.0000;1842.8380
3200.0000;1834.5170
3201.0000;1826.5430
3202.0000;1824.4670
3203.0000;1831.5910
3204.0000;1838.1370
3205.0000;1839.7410
3206.0000;1837.8810
3207.0000;1834.1160
3208.0000;1835.3630
3209.0000;1835.3230
3210.0000;1824.5010
3211.0000;1819.4630
3212.0000;1830.6850
3213.0000;1841.2750
3214.0000;1842.7320
3215.0000;1834.4580
3216.0000;1821.1640
3217.0000;1817.4930
3218.0000;1820.4910
3219.0000;1817.5130
3220.0000;1820.2190
3221.0000;1834.8710
3222.0000;1838.0990
3223.0000;1822.2560
3224.0000;1811.3240
3225.0000;1809.6870
3226.0000;1808.7930
3227.0000;1808.5220
3228.0000;1802.6100
3229.0000;1802.6920
3230.0000;1816.6820
3231.0000;1823.0320
3232.0000;1812.8040
3233.0000;1802.9080
3234.0000;1798.3330
3235.0000;1799.3350
3236.0000;1802.8930
3237.0000;1799.1040
3238.0000;1793.6800
3239.0000;1791.5980
3240.0000;1791.2220
3241.0000;1791.5230
3242.0000;1787.2270
3243.0000;1780.3190
3244.0000;1779.0540
3245.0000;1783.8880
3246.0000;1790.0400
3247.0000;1798.0410
3248.0000;1807.1880
3249.0000;1810.6330
3250.0000;1805.6370
3251.0000;1796.8430
3252.0000;1788.3290
3253.0000;1784.3190
3254.0000;1786.3990
3255.0000;1791.4850
3256.0000;1794.4300
3257.0000;1789.8040
3258.0000;1787.2830
3259.0000;1789.8040
3260.0000;1787.1120
3261.0000;1782.6580
3262.0000;1790.5810
3263.0000;1800.3040
3264.0000;1795.6100
3265.0000;1790.3480
3266.0000;1794.2400
3267.0000;1799.2490
3268.0000;1801.4360
3269.0000;1797.9390
3270.0000;1788.4010
3271.0000;1773.3000
3272.0000;1766.4560
3273.0000;1780.2540
3274.0000;1791.6140
3275.0000;1785.6760
3276.0000;1780.2220
3277.0000;1778.0660
3278.0000;1770.2130
3279.0000;1764.5000
3280.0000;1772.4780
3281.0000;1783.2030
3282.0000;1784.2380
3283.0000;1781.5330
3284.0000;1778.1170
3285.0000;1777.8990
3286.0000;1780.2570
3287.0000;1779.5990
3288.0000;1776.3160
3289.0000;1772.4140
3290.0000;1764.4530
3291.0000;1752.2010
3292.0000;1745.2220
3293.0000;1747.9510
3294.0000;1757.3440
3295.0000;1764.5060
3296.0000;1753.3870
3297.0000;1738.9770
3298.0000;1738.4220
3299.0000;1739.2390
3300.0000;1736.8470
3301.0000;1736.1400
3302.0000;1737.4300
3303.0000;1737.2920
3304.0000;1739.4640
3305.0000;1748.5880
3306.0000;1754.0340
3307.0000;1749.5560
3308.0000;1749.8760
3309.0000;1755.5610
3310.0000;1752.0790
3311.0000;1741.8000
3312.0000;1731.9740
3313.0000;1726.6170
3314.0000;1727.4520
3315.0000;1734.3860
3316.0000;1744.1890
3317.0000;1748.8630
3318.0000;1744.8490
3319.0000;1733.9320
3320.0000;1723.2630
3321.0000;1722.6380
3322.0000;1726.0570
3323.0000;1728.7650
3324.0000;1728.7340
3325.0000;1724.3430
3326.0000;1714.5090
3327.0000;1707.1310
3328.0000;1712.1950
3329.0000;1719.0950
3330.0000;1719.5400
3331.0000;1723.6280
3332.0000;1730.0650
3333.0000;1728.6070
3334.0000;1723.0510
3335.0000;1725.4150
3336.0000;1727.2900
3337.0000;1723.0740
3338.0000;1719.9180
3339.0000;1720.4550
3340.0000;1722.7490
3341.0000;1725.0820
3342.0000;1725.5710
3343.0000;1720.2740
3344.0000;1707.7430
3345.0000;1705.8600
3346.0000;1717.6980
3347.0000;1713.4210
3348.0000;1699.6800
3349.0000;1702.8380
3350.0000;1714.2950
3351.0000;1722.4920
3352.0000;1724.1690
3353.0000;1717.7810
3354.0000;1712.2030
3355.0000;1711.2390
3356.0000;1717.3070
3357.0000;1723.2380
3358.0000;1719.4440
3359.0000;1720.3670
3360.0000;1730.0300
3361.0000;1729.2700
3362.0000;1719.3810
3363.0000;1716.1100
3364.0000;1717.9610
3365.0000;1721.3640
3366.0000;1725.1570
3367.0000;1726.4500
3368.0000;1718.2790
3369.0000;1706.6860
3370.0000;1710.1510
3371.0000;1718.1870
3372.0000;1714.5330
3373.0000;1713.4040
3374.0000;1719.1320
3375.0000;1718.1740
3376.0000;1714.4520
3377.0000;1727.0820
3378.0000;1738.0850
3379.0000;1728.5390
3380.0000;1722.3150
3381.0000;1728.6020
3382.0000;1722.9010
3383.0000;1709.3680
3384.0000;1707.9780
3385.0000;1710.5330
3386.0000;1706.0310
3387.0000;1706.7990
3388.0000;1713.6570
3389.0000;1705.9400
3390.0000;1691.0160
3391.0000;1691.1240
3392.0000;1698.5680
3393.0000;1702.9960
3394.0000;1702.4790
3395.0000;1697.0020
3396.0000;1696.7560
3397.0000;1700.1370
3398.0000;1700.6780
3399.0000;1697.5320
3400.0000;1690.9250
3401.0000;1690.3490
3402.0000;1696.8080
3403.0000;1698.5320
3404.0000;1693.8390
3405.0000;1683.3440
3406.0000;1679.3770
3407.0000;1689.4230
3408.0000;1693.5990
3409.0000;1686.8150
3410.0000;1673.2490
3411.0000;1663.7670
3412.0000;1670.2190
3413.0000;1680.8160
3414.0000;1685.7500
3415.0000;1685.2290
3416.0000;1679.4920
3417.0000;1675.6630
3418.0000;1672.1350
3419.0000;1667.0350
3420.0000;1664.7930
3421.0000;1667.6280
3422.0000;1676.3360
3423.0000;1684.9130
3424.0000;1684.8130
3425.0000;1676.5410
3426.0000;1664.8510
3427.0000;1662.4710
3428.0000;1671.6930
3429.0000;1676.5250
3430.0000;1677.7730
3431.0000;1680.1530
3432.0000;1676.4170
3433.0000;1665.6360
3434.0000;1658.3150
3435.0000;1658.1500
3436.0000;1660.8520
3437.0000;1665.7080
3438.0000;1669.2700
3439.0000;1665.3230
3440.0000;1654.0810
3441.0000;1647.2160
3442.0000;1647.9880
3443.0000;1654.4860
3444.0000;1657.3790
3445.0000;1649.3990
3446.0000;1649.3120
3447.0000;1656.5750
3448.0000;1650.7910
3449.0000;1642.0830
3450.0000;1643.6030
3451.0000;1655.2520
3452.0000;1671.0800
3453.0000;1671.3590
3454.0000;1657.7000
3455.0000;1648.2020
3456.0000;1645.0000
3457.0000;1649.5160
3458.0000;1659.5340
3459.0000;1666.9080
3460.0000;1651.5350
3461.0000;1635.0170
3462.0000;1649.3790
3463.0000;1659.5770
3464.0000;1650.1130
3465.0000;1639.7230
3466.0000;1634.5000
3467.0000;1636.3060
3468.0000;1645.3880
3469.0000;1656.7430
3470.0000;1650.2430
3471.0000;1628.9850
3472.0000;1625.1930
3473.0000;1630.5100
3474.0000;1627.2920
3475.0000;1624.0680
3476.0000;1624.4750
3477.0000;1634.1590
3478.0000;1644.5680
3479.0000;1640.1260
3480.0000;1633.9410
3481.0000;1636.1160
3482.0000;1631.0020
3483.0000;1624.1090
3484.0000;1637.3750
3485.0000;1652.7880
3486.0000;1650.1880
3487.0000;1639.5700
3488.0000;1628.6020
3489.0000;1627.9350
3490.0000;1629.6780
3491.0000;1614.6360
3492.0000;1605.1650
3493.0000;1611.1220
3494.0000;1613.4700
3495.0000;1613.4000
3496.0000;1620.8310
3497.0000;1626.4240
3498.0000;1624.3370
3499.0000;1628.0270
3500.0000;1635.0560
3501.0000;1628.6990
3502.0000;1617.7910
3503.0000;1614.9100
3504.0000;1614.3660
3505.0000;1615.3230
3506.0000;1620.4390
3507.0000;1624.1200
3508.0000;1618.5920
3509.0000;1610.7700
3510.0000;1605.3800
3511.0000;1594.8000
3512.0000;1586.7140
3513.0000;1590.7360
3514.0000;1604.4070
3515.0000;1619.4040
3516.0000;1619.5730
3517.0000;1606.6240
3518.0000;1604.7150
3519.0000;1612.5620
3520.0000;1625.5460
3521.0000;1630.8010
3522.0000;1623.0000
3523.0000;1609.2310
3524.0000;1597.3110
3525.0000;1596.4290
3526.0000;1599.2530
3527.0000;1601.0760
3528.0000;1599.3870
3529.0000;1594.8770
3530.0000;1590.0730
3531.0000;1587.9240
3532.0000;1588.7230
3533.0000;1581.7090
3534.0000;1574.9360
3535.0000;1585.1330
3536.0000;1594.9070
3537.0000;1592.2420
3538.0000;1591.8180
3539.0000;1590.8000
3540.0000;1577.6210
3541.0000;1569.3310
3542.0000;1577.3940
3543.0000;1578.3680
3544.0000;1572.9440
3545.0000;1580.7530
3546.0000;1587.4410
3547.0000;1580.6980
3548.0000;1579.0150
3549.0000;1583.7860
3550.0000;1579.0790
3551.0000;1577.7520
3552.0000;1592.0600
3553.0000;1589.7290
3554.0000;1568.9790
3555.0000;1568.4530
3556.0000;1574.6510
3557.0000;1565.6210
3558.0000;1564.0150
3559.0000;1571.3140
3560.0000;1558.6910
3561.0000;1541.5060
3562.0000;1541.7330
3563.0000;1546.6840
3564.0000;1551.3240
3565.0000;1563.1490
3566.0000;1572.1750
3567.0000;1567.2550
3568.0000;1555.9530
3569.0000;1545.5040
3570.0000;1541.0810
3571.0000;1542.9510
3572.0000;1544.2650
3573.0000;1544.5680
3574.0000;1543.2560
3575.0000;1546.1540
3576.0000;1549.5640
3577.0000;1547.3060
3578.0000;1538.7380
3579.0000;1528.4250
3580.0000;1532.5180
3581.0000;1547.0700
3582.0000;1557.8480
3583.0000;1555.6540
3584.0000;1538.4320
3585.0000;1525.5260
3586.0000;1523.3100
3587.0000;1530.5340
3588.0000;1534.9160
3589.0000;1528.9270
3590.0000;1524.9460
3591.0000;1527.7160
3592.0000;1540.9830
3593.0000;1546.6440
3594.0000;1537.7120
3595.0000;1538.3710
3596.0000;1543.1080
3597.0000;1537.2810
3598.0000;1535.9530
3599.0000;1542.8390
3600.0000;1539.6710
3601.0000;1533.0790
3602.0000;1537.6320
3603.0000;1537.1610
3604.0000;1529.0860
3605.0000;1536.7260
3606.0000;1546.5050
3607.0000;1534.9810
3608.0000;1523.7420
3609.0000;1523.3090
3610.0000;1527.4710
3611.0000;1535.9770
3612.0000;1544.9420
3613.0000;1545.6910
3614.0000;1536.1510
3615.0000;1525.3360
3616.0000;1518.9640
3617.0000;1520.5940
3618.0000;1533.5130
3619.0000;1547.9720
3620.0000;1538.4660
3621.0000;1522.1850
3622.0000;1521.6430
3623.0000;1531.3910
3624.0000;1543.5450
3625.0000;1539.3310
3626.0000;1528.9340
3627.0000;1524.2810
3628.0000;1520.1860
3629.0000;1517.9000
3630.0000;1518.3180
3631.0000;1515.2520
3632.0000;1506.7080
3633.0000;1518.7880
3634.0000;1540.3190
3635.0000;1541.2380
3636.0000;1533.4440
3637.0000;1527.7910
3638.0000;1530.4910
3639.0000;1535.9160
3640.0000;1530.4910
3641.0000;1526.5960
3642.0000;1528.6250
3643.0000;1527.7870
3644.0000;1525.3670
3645.0000;1523.4990
3646.0000;1527.8620
3647.0000;1536.0810
3648.0000;1534.7620
3649.0000;1529.4060
3650.0000;1528.3750
3651.0000;1522.2820
3652.0000;1512.8500
3653.0000;1506.6220
3654.0000;1507.5210
3655.0000;1514.1810
3656.0000;1509.0800
3657.0000;1498.3170
3658.0000;1503.2910
3659.0000;1506.6370
3660.0000;1500.0450
3661.0000;1499.0590
3662.0000;1503.0030
3663.0000;1507.3980
3664.0000;1496.3900
3665.0000;1475.3230
3666.0000;1485.6720
3667.0000;1503.1760
3668.0000;1494.3640
3669.0000;1488.0300
3670.0000;1489.5640
3671.0000;1487.3270
3672.0000;1488.7720
3673.0000;1496.0060
3674.0000;1489.3320
3675.0000;1476.4000
3676.0000;1480.0980
3677.0000;1486.3880
3678.0000;1486.6950
3679.0000;1485.7360
3680.0000;1484.3010
3681.0000;1484.3870
3682.0000;1481.9370
3683.0000;1478.9180
3684.0000;1486.0550
3685.0000;1492.2370
3686.0000;1486.7830
3687.0000;1478.1430
3688.0000;1472.9380
3689.0000;1477.5350
3690.0000;1481.9080
3691.0000;1479.5440
3692.0000;1484.2100
3693.0000;1486.6740
3694.0000;1473.5340
3695.0000;1471.3480
3696.0000;1483.0190
3697.0000;1477.0750
3698.0000;1467.7700
3699.0000;1469.8110
3700.0000;1470.3950
3701.0000;1470.6890
3702.0000;1477.6060
3703.0000;1483.5130
3704.0000;1483.0510
3705.0000;1479.2120
3706.0000;1472.5840
3707.0000;1465.9450
3708.0000;1459.2220
3709.0000;1457.3280
3710.0000;1467.4720
3711.0000;1483.0190
3712.0000;1492.7780
3713.0000;1485.5560
3714.0000;1470.0300
3715.0000;1470.6460
3716.0000;1475.8270
3717.0000;1478.4270
3718.0000;1476.0540
3719.0000;1468.6240
3720.0000;1459.3250
3721.0000;1456.9150
3722.0000;1461.5090
3723.0000;1460.3340
3724.0000;1465.7400
3725.0000;1479.9410
3726.0000;1486.3680
3727.0000;1479.4070
3728.0000;1461.4690
3729.0000;1457.4620
3730.0000;1470.6040
3731.0000;1471.8850
3732.0000;1472.5210
3733.0000;1477.9150
3734.0000;1465.1050
3735.0000;1450.2440
3736.0000;1464.2760
3737.0000;1471.0760
3738.0000;1459.4780
3739.0000;1452.9060
3740.0000;1451.9430
3741.0000;1455.9710
3742.0000;1459.7720
3743.0000;1464.5720
3744.0000;1476.3140
3745.0000;1480.2150
3746.0000;1471.3120
3747.0000;1460.0620
3748.0000;1456.9550
3749.0000;1469.0090
3750.0000;1476.4300
3751.0000;1476.6280
3752.0000;1479.5550
3753.0000;1471.5530
3754.0000;1455.1430
3755.0000;1456.9410
3756.0000;1460.3910
3757.0000;1446.6540
3758.0000;1447.4610
3759.0000;1462.4490
3760.0000;1473.2350
3761.0000;1473.8290
3762.0000;1463.7770
3763.0000;1458.0350
3764.0000;1459.2820
3765.0000;1466.4030
3766.0000;1470.5100
3767.0000;1472.2360
3768.0000;1480.2590
3769.0000;1479.2300
3770.0000;1470.8580
3771.0000;1490.1020
3772.0000;1503.1330
3773.0000;1481.2930
3774.0000;1474.5710
3775.0000;1482.3510
3776.0000;1482.2430
3777.0000;1486.0060
3778.0000;1492.5480
3779.0000;1488.8770
3780.0000;1483.7760
3781.0000;1485.6890
3782.0000;1491.5990
3783.0000;1495.3740
3784.0000;1489.5020
3785.0000;1479.5720
3786.0000;1472.8280
3787.0000;1476.6900
3788.0000;1482.5920
3789.0000;1482.6400
3790.0000;1482.7300
3791.0000;1482.6480
3792.0000;1482.6540
3793.0000;1489.0210
3794.0000;1498.5020
3795.0000;1503.7600
3796.0000;1492.2170
3797.0000;1467.5680
3798.0000;1458.4170
3799.0000;1467.6580
3800.0000;1484.9480
3801.0000;1480.8830
3802.0000;1467.5660
3803.0000;1480.6880
3804.0000;1490.1060
3805.0000;1486.0660
3806.0000;1482.3840
3807.0000;1480.6970
3808.0000;1482.4390
3809.0000;1478.4900
3810.0000;1473.8290
3811.0000;1475.1180
3812.0000;1464.6950
3813.0000;1450.4210
3814.0000;1453.8590
3815.0000;1470.0400
3816.0000;1486.8170
3817.0000;1483.4090
3818.0000;1471.9540
3819.0000;1468.3070
3820.0000;1464.0590
3821.0000;1465.0230
3822.0000;1476.0420
3823.0000;1473.4760
3824.0000;1459.4510
3825.0000;1460.1730
3826.0000;1463.2460
3827.0000;1461.8820
3828.0000;1458.8040
3829.0000;1454.4040
3830.0000;1450.2110
3831.0000;1450.9380
3832.0000;1453.3860
3833.0000;1450.5310
3834.0000;1446.8130
3835.0000;1444.9720
3836.0000;1446.4390
3837.0000;1446.8730
3838.0000;1445.5500
3839.0000;1452.1400
3840.0000;1456.3200
3841.0000;1450.5660
3842.0000;1453.1390
3843.0000;1460.8380
3844.0000;1464.4680
3845.0000;1465.6180
3846.0000;1461.9600
3847.0000;1450.2600
3848.0000;1450.2940
3849.0000;1464.6630
3850.0000;1464.0360
3851.0000;1466.9420
3852.0000;1483.2550
3853.0000;1488.4400
3854.0000;1484.6500
3855.0000;1481.6790
3856.0000;1466.1450
3857.0000;1452.8050
3858.0000;1466.5490
3859.0000;1481.1600
3860.0000;1484.1000
3861.0000;1482.7810
3862.0000;1474.3150
3863.0000;1464.6790
3864.0000;1469.0540
3865.0000;1475.4350
3866.0000;1471.4650
3867.0000;1473.1520
3868.0000;1476.9260
3869.0000;1475.2960
3870.0000;1477.7900
3871.0000;1480.8280
3872.0000;1473.5270
3873.0000;1469.6640
3874.0000;1473.4330
3875.0000;1476.7080
3876.0000;1478.1580
3877.0000;1478.0780
3878.0000;1485.5420
3879.0000;1492.1040
3880.0000;1489.9360
3881.0000;1480.6080
3882.0000;1473.0920
3883.0000;1477.9880
3884.0000;1478.1970
3885.0000;1476.2720
3886.0000;1485.0090
3887.0000;1479.2660
3888.0000;1466.6770
3889.0000;1491.5120
3890.0000;1509.9660
3891.0000;1502.5190
3892.0000;1505.1410
3893.0000;1507.7660
3894.0000;1504.8510
3895.0000;1500.1300
3896.0000;1495.9190
3897.0000;1494.1930
3898.0000;1491.0170
3899.0000;1491.7350
3900.0000;1501.6800
3901.0000;1511.0740
3902.0000;1516.5540
3903.0000;1522.3670
3904.0000;1526.8180
3905.0000;1526.6190
3906.0000;1515.6450
3907.0000;1510.3960
3908.0000;1518.2620
3909.0000;1524.2610
3910.0000;1530.4010
3911.0000;1535.9470
3912.0000;1537.2290
3913.0000;1538.0380
3914.0000;1543.4230
3915.0000;1549.6640
3916.0000;1553.8070
3917.0000;1554.5140
3918.0000;1556.7310
3919.0000;1563.6070
3920.0000;1576.8380
3921.0000;1578.2660
3922.0000;1571.1280
3923.0000;1577.4170
3924.0000;1589.4750
3925.0000;1600.5680
3926.0000;1605.7160
3927.0000;1611.2730
3928.0000;1618.6860
3929.0000;1619.8890
3930.0000;1620.5530
3931.0000;1625.9040
3932.0000;1634.8320
3933.0000;1645.2610
3934.0000;1653.4390
3935.0000;1650.0150
3936.0000;1647.5170
3937.0000;1660.3350
3938.0000;1665.9750
3939.0000;1669.7290
3940.0000;1682.3980
3941.0000;1690.2130
3942.0000;1694.3980
3943.0000;1704.6690
3944.0000;1705.4760
3945.0000;1705.1690
3946.0000;1727.1670
3947.0000;1739.8740
3948.0000;1736.1530
3949.0000;1733.1850
3950.0000;1738.5660
3951.0000;1753.2360
3952.0000;1767.5690
3953.0000;1768.7500
3954.0000;1760.4840
3955.0000;1778.0600
3956.0000;1792.4540
3957.0000;1789.2950
3958.0000;1795.8900
3959.0000;1799.6110
3960.0000;1796.6770
3961.0000;1807.1180
3962.0000;1821.6390
3963.0000;1829.7820
3964.0000;1831.5140
3965.0000;1826.6710
3966.0000;1822.1610
3967.0000;1835.4320
3968.0000;1846.7150
3969.0000;1835.3080
3970.0000;1847.5810
3971.0000;1869.5760
3972.0000;1874.0590
3973.0000;1870.3080
3974.0000;1870.5410
3975.0000;1888.7290
3976.0000;1888.2400
3977.0000;1878.1440
3978.0000;1886.9640
3979.0000;1891.2000
3980.0000;1889.4510
3981.0000;1890.2560
3982.0000;1890.9330
3983.0000;1889.7950
3984.0000;1885.3430
3985.0000;1886.7770
3986.0000;1893.3800
3987.0000;1896.6680
3988.0000;1898.6350
3989.0000;1897.4530
3990.0000;1890.5900
3991.0000;1890.2170
3992.0000;1896.2480
3993.0000;1895.2730
3994.0000;1894.6970
3995.0000;1893.1560
3996.0000;1881.8400
3997.0000;1877.7310
3998.0000;1881.5710
3999.0000;1872.5740
4000.0000;1870.0100
4001.0000;1875.9130
4002.0000;1871.2780
4003.0000;1870.3360
4004.0000;1872.0830
4005.0000;1856.3380
4006.0000;1844.2400
4007.0000;1842.7850
4008.0000;1835.0490
4009.0000;1831.2950
4010.0000;1831.7110
4011.0000;1826.0350
4012.0000;1815.6010
4013.0000;1803.9860
4014.0000;1794.2310
4015.0000;1788.9490
4016.0000;1787.4760
4017.0000;1783.1700
4018.0000;1777.3230
4019.0000;1773.0900
4020.0000;1777.3020
4021.0000;1770.5780
4022.0000;1750.3430
4023.0000;1733.2820
4024.0000;1721.6150
4025.0000;1715.2640
4026.0000;1704.4320
4027.0000;1698.7520
4028.0000;1696.5030
4029.0000;1682.6410
4030.0000;1674.0280
4031.0000;1676.8580
4032.0000;1685.0530
4033.0000;1671.6560
4034.0000;1641.6130
4035.0000;1631.4950
4036.0000;1622.8290
4037.0000;1617.8010
4038.0000;1629.3220
4039.0000;1629.4450
4040.0000;1615.5040
4041.0000;1608.2430
4042.0000;1595.5340
4043.0000;1587.3480
4044.0000;1602.0710
4045.0000;1596.3350
4046.0000;1579.3930
4047.0000;1591.0100
4048.0000;1587.7600
4049.0000;1574.6160
4050.0000;1576.5130
4051.0000;1567.7330
4052.0000;1554.1270
4053.0000;1550.8390
4054.0000;1552.3770
4055.0000;1552.0240
4056.0000;1542.4840
4057.0000;1537.0300
4058.0000;1531.7810
4059.0000;1521.5590
4060.0000;1521.8820
4061.0000;1526.5560
4062.0000;1524.8960
4063.0000;1521.5720
4064.0000;1516.0230
4065.0000;1509.7900
4066.0000;1503.6980
4067.0000;1510.8880
4068.0000;1528.7030
4069.0000;1515.7720
4070.0000;1495.7730
4071.0000;1490.3880
4072.0000;1495.0010
4073.0000;1495.7450
4074.0000;1485.2090
4075.0000;1473.1250
4076.0000;1468.5890
4077.0000;1469.4060
4078.0000;1456.0930
4079.0000;1450.7650
4080.0000;1455.9930
4081.0000;1454.6280
4082.0000;1448.6430
4083.0000;1443.2960
4084.0000;1445.8400
4085.0000;1433.5230
4086.0000;1418.8140
4087.0000;1424.3510
4088.0000;1423.9250
4089.0000;1417.2750
4090.0000;1410.7100
4091.0000;1408.0770
4092.0000;1407.0290
4093.0000;1402.4740
4094.0000;1387.0330
4095.0000;1385.7880
4096.0000;1405.4370
4097.0000;1394.3450
4098.0000;1388.8830
4099.0000;1402.9560
4100.0000;1396.5010
4101.0000;1401.2050
4102.0000;1411.7970
4103.0000;1380.8930
4104.0000;1367.2480
4105.0000;1378.7060
4106.0000;1379.6150
4107.0000;1368.2750
4108.0000;1355.7330
4109.0000;1359.2090
4110.0000;1356.7890
4111.0000;1344.3510
4112.0000;1325.4340
4113.0000;1305.9410
4114.0000;1288.8240
4115.0000;1275.7920
4116.0000;1265.0460
4117.0000;1258.5470
4118.0000;1254.4000
4119.0000;1251.5940
4120.0000;1235.8180
4121.0000;1211.7190
4122.0000;1205.5050
4123.0000;1195.9680
4124.0000;1178.9130
4125.0000;1160.8010
4126.0000;1142.9560
4127.0000;1133.9490
4128.0000;1134.2250
4129.0000;1103.8730
4130.0000;1074.6000
4131.0000;1078.9120
4132.0000;1075.7650
4133.0000;1065.7810
4134.0000;1047.2730
4135.0000;1010.4170
4136.0000;991.1436
4137.0000;992.3143
4138.0000;967.9922
4139.0000;940.8210
4140.0000;920.1473
4141.0000;903.5569
4142.0000;879.3176
4143.0000;854.5135
4144.0000;838.9642
4145.0000;834.9548
4146.0000;827.1358
4147.0000;803.7008
4148.0000;783.4138
4149.0000;773.7585
4150.0000;773.7092
4151.0000;768.5833
4152.0000;758.8292
4153.0000;752.0930
4154.0000;759.3437
4155.0000;754.5652
4156.0000;741.1777
4157.0000;733.9666
4158.0000;717.1174
4159.0000;693.6135
4160.0000;672.8995
4161.0000;667.4673
4162.0000;669.0522
4163.0000;668.1118
4164.0000;665.7144
4165.0000;658.9788
4166.0000;648.9343
4167.0000;638.6121
4168.0000;629.3932
4169.0000;625.2572
4170.0000;627.2467
4171.0000;630.8687
4172.0000;633.0747
4173.0000;630.0064
4174.0000;616.9217
4175.0000;613.2534
4176.0000;621.2690
4177.0000;618.4476
4178.0000;617.3129
4179.0000;615.6658
4180.0000;607.5629
4181.0000;606.6348
4182.0000;611.3902
4183.0000;614.6757
4184.0000;612.7917
4185.0000;603.7681
4186.0000;594.9084
4187.0000;601.3086
4188.0000;598.7867
4189.0000;590.2482
4190.0000;594.5312
4191.0000;597.3109
4192.0000;601.3084
4193.0000;608.5336
4194.0000;606.5149
4195.0000;600.2687
4196.0000;597.9517
4197.0000;605.4120
4198.0000;599.6702
4199.0000;585.9432
4200.0000;587.9843
4201.0000;586.8708
4202.0000;584.6948
4203.0000;586.0184
4204.0000;588.9226
4205.0000;592.3234
4206.0000;595.8912
4207.0000;602.9503
4208.0000;601.8006
4209.0000;597.0837
4210.0000;600.7687
4211.0000;589.1477
4212.0000;581.8907
4213.0000;593.0778
4214.0000;590.0882
4215.0000;588.4209
4216.0000;592.6654
4217.0000;593.2000
4218.0000;588.4525
4219.0000;579.5577
4220.0000;572.2422
4221.0000;578.3037
4222.0000;583.6038
4223.0000;578.2802
4224.0000;576.5389
4225.0000;584.4636
4226.0000;593.3932
4227.0000;585.8634
4228.0000;574.9478
4229.0000;567.7546
4230.0000;567.7042
4231.0000;567.4945
4232.0000;575.5300
4233.0000;585.5284
4234.0000;577.5679
4235.0000;578.9092
4236.0000;529.7418
4237.0000;377.9334
4238.0000;203.7086
