Raman Shift ; Dark Subtracted #1
98.0000;813.1402
99.0000;813.9760
100.0000;807.1392
101.0000;799.1470
102.0000;793.3829
103.0000;793.2028
104.0000;802.0680
105.0000;818.9890
106.0000;832.8054
107.0000;837.1628
108.0000;829.4536
109.0000;810.6977
110.0000;785.4166
111.0000;766.2331
112.0000;761.4534
113.0000;767.0897
114.0000;773.6308
115.0000;781.7872
116.0000;784.6542
117.0000;779.8694
118.0000;776.5642
119.0000;784.4218
120.0000;793.8419
121.0000;792.5172
122.0000;781.3776
123.0000;774.8903
124.0000;781.5275
125.0000;790.4075
126.0000;790.0417
127.0000;783.7932
128.0000;779.9228
129.0000;781.2875
130.0000;784.7813
131.0000;790.3269
132.0000;792.8286
133.0000;784.7394
134.0000;767.7159
135.0000;754.3983
136.0000;754.0147
137.0000;760.4261
138.0000;764.5870
139.0000;767.1979
140.0000;767.2890
141.0000;763.8751
142.0000;760.3333
143.0000;757.9434
144.0000;759.7108
145.0000;769.2572
146.0000;785.0641
147.0000;795.2311
148.0000;791.8829
149.0000;782.5602
150.0000;778.6666
151.0000;778.1090
152.0000;776.1021
153.0000;771.7730
154.0000;768.9912
155.0000;771.5117
156.0000;774.3835
157.0000;768.5249
158.0000;755.3619
159.0000;747.5675
160.0000;753.6847
161.0000;760.7591
162.0000;752.5405
163.0000;736.0675
164.0000;725.8937
165.0000;727.4939
166.0000;734.4692
167.0000;742.2794
168.0000;748.1120
169.0000;743.6025
170.0000;730.3577
171.0000;722.5112
172.0000;727.8053
173.0000;738.6807
174.0000;748.5124
175.0000;754.6152
176.0000;754.3377
177.0000;745.5939
178.0000;730.7503
179.0000;710.2519
180.0000;695.2268
181.0000;695.9800
182.0000;712.6754
183.0000;728.1417
184.0000;734.3234
185.0000;735.0240
186.0000;733.9440
187.0000;729.7666
188.0000;727.2368
189.0000;727.3499
190.0000;729.8291
191.0000;735.2424
192.0000;739.4421
193.0000;737.5333
194.0000;731.1266
195.0000;726.3145
196.0000;725.4121
197.0000;727.6962
198.0000;733.6640
199.0000;738.9049
200.0000;736.6063
201.0000;727.7626
202.0000;720.7572
203.0000;719.7975
204.0000;721.2728
205.0000;718.9915
206.0000;718.9360
207.0000;726.9543
208.0000;741.9564
209.0000;754.1804
210.0000;757.6564
211.0000;754.0735
212.0000;748.8405
213.0000;742.2382
214.0000;738.9801
215.0000;741.2379
216.0000;747.6701
217.0000;757.8887
218.0000;765.6841
219.0000;762.8970
220.0000;750.9564
221.0000;743.0644
222.0000;744.3198
223.0000;752.9575
224.0000;769.1249
225.0000;784.4680
226.0000;786.3878
227.0000;773.6635
228.0000;764.3322
229.0000;767.4555
230.0000;775.4611
231.0000;782.2014
232.0000;786.7235
233.0000;787.3173
234.0000;782.5116
235.0000;773.8782
236.0000;763.0479
237.0000;754.5052
238.0000;751.5286
239.0000;755.6644
240.0000;762.3685
241.0000;769.6081
242.0000;773.1611
243.0000;769.3109
244.0000;760.7499
245.0000;752.2672
246.0000;745.7995
247.0000;740.9273
248.0000;739.2311
249.0000;743.8575
250.0000;755.7549
251.0000;770.8012
252.0000;780.9065
253.0000;784.7005
254.0000;789.5034
255.0000;797.7386
256.0000;800.3333
257.0000;791.7006
258.0000;778.8227
259.0000;774.0423
260.0000;779.3898
261.0000;787.7820
262.0000;796.9368
263.0000;799.5059
264.0000;786.5201
265.0000;767.1110
266.0000;758.3546
267.0000;763.6473
268.0000;774.5081
269.0000;787.3602
270.0000;796.6955
271.0000;795.2931
272.0000;786.5194
273.0000;783.3772
274.0000;787.2650
275.0000;792.0496
276.0000;794.1529
277.0000;796.3731
278.0000;804.2301
279.0000;809.9365
280.0000;801.5350
281.0000;779.7078
282.0000;762.8447
283.0000;764.4117
284.0000;774.8732
285.0000;779.9021
286.0000;782.9473
287.0000;786.5055
288.0000;790.0153
289.0000;794.2895
290.0000;800.4036
291.0000;804.9149
292.0000;808.1976
293.0000;807.1429
294.0000;800.2912
295.0000;788.7223
296.0000;782.2279
297.0000;787.5450
298.0000;797.2756
299.0000;799.2886
300.0000;798.1614
301.0000;804.3953
302.0000;817.5353
303.0000;824.6239
304.0000;817.1996
305.0000;806.7046
306.0000;807.5630
307.0000;815.8151
308.0000;823.1838
309.0000;827.6691
310.0000;831.1582
311.0000;833.5586
312.0000;836.1763
313.0000;846.2687
314.0000;854.8221
315.0000;848.6588
316.0000;827.3798
317.0000;812.0903
318.0000;816.1995
319.0000;829.4294
320.0000;838.6856
321.0000;846.6725
322.0000;855.8101
323.0000;863.4615
324.0000;867.7144
325.0000;867.3023
326.0000;865.6577
327.0000;873.9263
328.0000;879.1978
329.0000;863.7343
330.0000;830.4918
331.0000;809.6234
332.0000;815.2762
333.0000;831.6667
334.0000;838.7390
335.0000;844.5020
336.0000;854.2256
337.0000;864.3084
338.0000;871.1714
339.0000;872.3719
340.0000;873.4167
341.0000;885.5262
342.0000;893.1014
343.0000;880.7736
344.0000;854.7448
345.0000;840.0596
346.0000;847.3342
347.0000;860.7054
348.0000;868.0935
349.0000;872.3151
350.0000;873.7270
351.0000;871.0192
352.0000;866.5508
353.0000;861.9648
354.0000;862.1744
355.0000;872.0906
356.0000;881.4829
357.0000;878.1902
358.0000;868.1616
359.0000;867.4697
360.0000;876.9199
361.0000;884.5521
362.0000;883.8536
363.0000;877.8354
364.0000;869.1016
365.0000;860.3416
366.0000;854.2069
367.0000;855.3042
368.0000;869.0634
369.0000;896.2252
370.0000;916.4200
371.0000;911.0551
372.0000;891.0477
373.0000;880.3588
374.0000;877.4582
375.0000;875.0189
376.0000;872.9028
377.0000;874.0042
378.0000;878.8430
379.0000;884.9511
380.0000;889.3694
381.0000;890.8001
382.0000;889.7035
383.0000;886.4140
384.0000;886.7184
385.0000;894.9717
386.0000;898.4214
387.0000;884.1438
388.0000;862.2129
389.0000;843.9909
390.0000;836.8512
391.0000;843.5092
392.0000;865.9474
393.0000;882.8712
394.0000;874.2061
395.0000;857.0044
396.0000;857.4257
397.0000;868.6298
398.0000;872.1956
399.0000;865.2906
400.0000;859.7100
401.0000;862.6450
402.0000;866.8965
403.0000;865.8915
404.0000;862.0185
405.0000;858.3835
406.0000;855.9571
407.0000;854.7104
408.0000;854.9771
409.0000;858.9393
410.0000;868.2643
411.0000;877.3796
412.0000;882.5850
413.0000;880.3085
414.0000;870.6700
415.0000;854.8278
416.0000;840.7170
417.0000;833.0934
418.0000;837.4763
419.0000;860.6266
420.0000;886.0264
421.0000;882.7818
422.0000;853.4207
423.0000;834.1652
424.0000;838.8036
425.0000;851.7579
426.0000;861.7838
427.0000;869.8278
428.0000;874.0443
429.0000;872.2072
430.0000;867.6204
431.0000;861.1927
432.0000;856.9359
433.0000;857.8789
434.0000;859.6270
435.0000;856.0932
436.0000;852.5922
437.0000;856.7925
438.0000;863.4949
439.0000;855.9819
440.0000;831.8752
441.0000;814.4611
442.0000;819.2083
443.0000;832.3061
444.0000;833.6199
445.0000;832.0769
446.0000;839.9555
447.0000;853.5909
448.0000;856.2113
449.0000;842.4828
450.0000;830.8978
451.0000;836.6987
452.0000;847.3545
453.0000;848.3875
454.0000;843.2045
455.0000;837.8933
456.0000;835.1996
457.0000;840.5325
458.0000;856.6081
459.0000;867.8981
460.0000;859.9131
461.0000;844.9543
462.0000;839.9253
463.0000;844.7686
464.0000;856.4805
465.0000;872.3375
466.0000;877.5369
467.0000;863.9575
468.0000;847.4468
469.0000;845.0452
470.0000;849.5019
471.0000;849.2737
472.0000;846.8043
473.0000;845.6485
474.0000;846.6055
475.0000;848.5893
476.0000;850.2377
477.0000;856.0000
478.0000;875.6567
479.0000;890.2087
480.0000;878.5762
481.0000;846.5007
482.0000;827.9264
483.0000;832.1600
484.0000;840.4247
485.0000;842.6497
486.0000;843.6667
487.0000;843.9734
488.0000;842.9802
489.0000;840.8098
490.0000;839.2236
491.0000;843.8862
492.0000;854.4989
493.0000;857.3999
494.0000;843.1763
495.0000;830.3333
496.0000;839.4348
497.0000;857.6450
498.0000;863.8090
499.0000;859.5552
500.0000;857.8964
501.0000;860.7695
502.0000;864.2561
503.0000;867.6443
504.0000;864.0690
505.0000;844.9752
506.0000;824.5289
507.0000;822.4905
508.0000;836.8260
509.0000;848.2355
510.0000;852.1096
511.0000;855.9111
512.0000;861.7912
513.0000;865.1533
514.0000;865.5930
515.0000;862.3838
516.0000;858.0396
517.0000;853.6840
518.0000;852.6241
519.0000;855.4319
520.0000;857.6336
521.0000;856.9069
522.0000;854.6523
523.0000;851.0441
524.0000;848.9540
525.0000;852.4741
526.0000;858.7865
527.0000;859.7742
528.0000;856.2222
529.0000;860.0414
530.0000;874.3724
531.0000;878.1782
532.0000;856.4252
533.0000;832.8543
534.0000;834.6523
535.0000;853.2820
536.0000;867.1152
537.0000;874.9814
538.0000;882.9177
539.0000;889.5661
540.0000;888.0198
541.0000;875.2778
542.0000;862.1630
543.0000;861.7296
544.0000;866.7920
545.0000;864.9608
546.0000;858.3000
547.0000;849.9326
548.0000;841.9758
549.0000;836.3248
550.0000;834.7256
551.0000;836.4652
552.0000;839.1164
553.0000;843.2890
554.0000;847.3912
555.0000;850.9498
556.0000;857.1183
557.0000;861.2569
558.0000;852.6383
559.0000;830.1255
560.0000;814.7603
561.0000;820.2585
562.0000;832.0891
563.0000;831.9835
564.0000;829.8727
565.0000;834.7871
566.0000;843.9537
567.0000;853.5319
568.0000;859.7890
569.0000;856.2974
570.0000;840.9634
571.0000;830.7047
572.0000;839.7563
573.0000;854.0015
574.0000;858.9639
575.0000;853.6218
576.0000;836.5652
577.0000;815.2252
578.0000;811.1417
579.0000;829.5413
580.0000;844.7440
581.0000;841.6615
582.0000;834.4372
583.0000;833.7833
584.0000;834.6173
585.0000;832.2632
586.0000;831.3013
587.0000;839.6016
588.0000;853.1917
589.0000;857.5688
590.0000;848.0504
591.0000;840.1494
592.0000;842.4203
593.0000;848.6438
594.0000;853.1649
595.0000;857.8752
596.0000;865.3777
597.0000;870.9509
598.0000;871.0917
599.0000;864.8698
600.0000;858.9102
601.0000;855.5620
602.0000;852.1260
603.0000;847.4947
604.0000;843.4265
605.0000;839.1657
606.0000;837.6071
607.0000;840.6696
608.0000;844.9732
609.0000;840.0760
610.0000;827.6328
611.0000;822.3496
612.0000;828.4714
613.0000;829.4347
614.0000;814.5659
615.0000;803.9557
616.0000;814.8200
617.0000;831.6478
618.0000;834.4044
619.0000;824.7739
620.0000;812.4084
621.0000;799.7333
622.0000;791.0305
623.0000;789.8500
624.0000;797.1315
625.0000;811.9440
626.0000;825.2421
627.0000;827.9091
628.0000;821.5805
629.0000;811.3999
630.0000;802.2972
631.0000;804.9994
632.0000;818.3540
633.0000;827.1984
634.0000;827.0890
635.0000;823.6476
636.0000;819.0152
637.0000;816.1866
638.0000;818.4196
639.0000;823.7592
640.0000;829.3564
641.0000;833.6613
642.0000;835.9045
643.0000;834.8802
644.0000;833.4949
645.0000;831.5062
646.0000;826.2560
647.0000;817.6780
648.0000;815.9421
649.0000;828.1450
650.0000;839.1122
651.0000;832.3212
652.0000;820.3063
653.0000;821.3301
654.0000;828.8619
655.0000;829.3198
656.0000;821.9785
657.0000;810.0995
658.0000;797.3483
659.0000;796.1552
660.0000;813.0417
661.0000;827.4461
662.0000;821.4786
663.0000;810.4800
664.0000;814.7032
665.0000;820.2358
666.0000;806.8832
667.0000;786.8694
668.0000;789.2308
669.0000;812.5599
670.0000;822.1186
671.0000;807.5479
672.0000;792.0063
673.0000;787.6141
674.0000;789.6987
675.0000;796.9252
676.0000;802.0476
677.0000;792.1257
678.0000;776.8352
679.0000;772.1121
680.0000;778.0659
681.0000;785.6539
682.0000;791.5933
683.0000;790.6722
684.0000;780.8002
685.0000;771.0849
686.0000;767.0807
687.0000;771.7169
688.0000;787.9110
689.0000;802.8465
690.0000;799.6859
691.0000;787.0795
692.0000;788.0445
693.0000;795.7253
694.0000;788.5598
695.0000;768.9386
696.0000;761.9124
697.0000;775.7105
698.0000;788.5708
699.0000;788.3862
700.0000;784.4232
701.0000;782.7736
702.0000;783.5349
703.0000;791.9528
704.0000;798.8876
705.0000;791.4391
706.0000;775.1187
707.0000;768.8486
708.0000;773.7419
709.0000;776.4483
710.0000;774.3929
711.0000;775.6199
712.0000;782.6917
713.0000;785.1164
714.0000;774.9568
715.0000;764.2172
716.0000;765.4301
717.0000;770.6782
718.0000;767.8574
719.0000;760.8788
720.0000;754.1274
721.0000;750.7452
722.0000;754.4515
723.0000;763.8369
724.0000;764.4861
725.0000;751.8073
726.0000;742.5958
727.0000;746.8477
728.0000;755.8884
729.0000;761.8834
730.0000;766.9013
731.0000;772.0391
732.0000;775.4450
733.0000;781.2964
734.0000;784.2234
735.0000;780.6553
736.0000;768.9020
737.0000;748.8790
738.0000;725.8962
739.0000;720.6197
740.0000;740.6572
741.0000;756.6118
742.0000;747.2810
743.0000;736.9337
744.0000;744.5335
745.0000;755.5159
746.0000;757.5338
747.0000;751.8087
748.0000;740.9227
749.0000;728.8172
750.0000;722.9044
751.0000;725.4529
752.0000;730.9554
753.0000;737.8032
754.0000;743.1695
755.0000;744.5063
756.0000;740.4519
757.0000;730.3167
758.0000;724.5543
759.0000;731.8417
760.0000;744.2259
761.0000;752.1476
762.0000;756.3349
763.0000;760.5049
764.0000;759.8206
765.0000;751.9646
766.0000;740.3637
767.0000;736.0588
768.0000;740.6935
769.0000;743.8271
770.0000;742.9341
771.0000;741.3947
772.0000;740.0887
773.0000;742.6737
774.0000;752.2315
775.0000;758.8473
776.0000;753.9357
777.0000;744.3328
778.0000;740.3548
779.0000;739.4818
780.0000;736.7417
781.0000;734.5760
782.0000;732.9675
783.0000;734.5749
784.0000;744.3466
785.0000;759.6172
786.0000;767.3709
787.0000;762.6537
788.0000;758.1045
789.0000;759.9038
790.0000;754.8619
791.0000;734.7499
792.0000;719.8928
793.0000;725.4860
794.0000;738.7949
795.0000;739.7646
796.0000;736.8300
797.0000;741.9092
798.0000;746.8817
799.0000;739.0629
800.0000;723.0331
801.0000;714.5588
802.0000;717.5690
803.0000;723.4968
804.0000;730.8412
805.0000;742.1515
806.0000;756.0942
807.0000;761.1343
808.0000;751.5180
809.0000;739.9922
810.0000;739.6016
811.0000;742.3349
812.0000;741.4294
813.0000;738.5872
814.0000;733.1594
815.0000;727.1618
816.0000;723.3805
817.0000;721.6786
818.0000;716.0439
819.0000;710.7828
820.0000;714.7412
821.0000;726.9753
822.0000;733.2215
823.0000;729.5904
824.0000;730.1556
825.0000;739.6871
826.0000;744.9897
827.0000;739.5493
828.0000;732.9846
829.0000;732.2219
830.0000;736.0657
831.0000;745.1178
832.0000;751.9074
833.0000;747.1110
834.0000;738.1283
835.0000;739.0231
836.0000;745.7571
837.0000;747.8997
838.0000;746.6243
839.0000;747.6013
840.0000;749.9438
841.0000;748.4379
842.0000;744.2158
843.0000;748.2334
844.0000;762.2158
845.0000;771.7341
846.0000;769.0300
847.0000;768.3356
848.0000;778.7886
849.0000;782.3632
850.0000;766.1567
851.0000;751.7887
852.0000;761.1269
853.0000;774.5504
854.0000;766.5588
855.0000;750.5304
856.0000;742.9523
857.0000;745.9016
858.0000;759.8516
859.0000;776.7784
860.0000;772.1118
861.0000;750.9684
862.0000;748.7926
863.0000;767.0069
864.0000;777.5267
865.0000;773.1691
866.0000;772.5489
867.0000;780.6542
868.0000;786.0718
869.0000;784.0049
870.0000;777.2668
871.0000;767.0052
872.0000;763.8680
873.0000;777.1841
874.0000;792.6324
875.0000;794.8338
876.0000;789.7700
877.0000;787.3579
878.0000;785.4513
879.0000;785.2453
880.0000;785.9821
881.0000;784.9218
882.0000;782.8548
883.0000;781.1539
884.0000;780.2230
885.0000;781.3077
886.0000;781.6070
887.0000;769.5018
888.0000;747.5234
889.0000;736.3633
890.0000;743.3249
891.0000;751.2690
892.0000;753.1306
893.0000;754.4934
894.0000;756.3936
895.0000;757.0853
896.0000;756.1360
897.0000;754.5195
898.0000;752.1529
899.0000;756.7827
900.0000;777.7570
901.0000;791.9910
902.0000;773.4731
903.0000;748.7593
904.0000;756.4163
905.0000;780.3978
906.0000;794.1586
907.0000;797.7770
908.0000;798.1930
909.0000;791.2742
910.0000;777.0145
911.0000;761.1609
912.0000;755.4661
913.0000;762.5395
914.0000;770.4778
915.0000;775.5938
916.0000;772.7196
917.0000;761.6830
918.0000;755.3948
919.0000;759.0273
920.0000;762.8773
921.0000;763.1085
922.0000;765.0557
923.0000;770.5757
924.0000;771.3710
925.0000;762.5781
926.0000;758.3124
927.0000;770.2003
928.0000;782.3889
929.0000;780.2108
930.0000;773.5840
931.0000;774.9238
932.0000;775.6667
933.0000;765.6387
934.0000;757.9993
935.0000;769.6204
936.0000;787.0981
937.0000;787.7681
938.0000;775.0045
939.0000;759.6172
940.0000;748.7148
941.0000;754.5350
942.0000;774.4788
943.0000;792.8287
944.0000;802.4611
945.0000;799.1813
946.0000;786.9056
947.0000;798.1029
948.0000;830.2170
949.0000;839.1216
950.0000;815.5157
951.0000;789.0868
952.0000;773.1918
953.0000;768.8989
954.0000;778.6888
955.0000;786.9352
956.0000;784.8737
957.0000;786.9506
958.0000;799.3284
959.0000;804.1804
960.0000;791.7938
961.0000;777.1967
962.0000;770.6964
963.0000;771.5938
964.0000;778.4939
965.0000;788.0231
966.0000;793.8096
967.0000;797.5192
968.0000;804.9352
969.0000;802.7367
970.0000;778.6154
971.0000;754.2725
972.0000;755.2318
973.0000;771.7073
974.0000;781.6645
975.0000;787.4916
976.0000;791.8532
977.0000;792.6421
978.0000;793.8598
979.0000;794.0416
980.0000;794.1254
981.0000;793.5731
982.0000;792.2000
983.0000;790.6210
984.0000;790.3969
985.0000;791.0532
986.0000;790.7928
987.0000;788.1385
988.0000;778.3170
989.0000;765.7697
990.0000;765.3560
991.0000;778.0203
992.0000;784.2749
993.0000;780.6530
994.0000;781.1586
995.0000;787.1849
996.0000;790.3017
997.0000;788.5964
998.0000;789.6470
999.0000;794.8118
1000.0000;795.3336
1001.0000;788.6064
1002.0000;783.2413
1003.0000;783.3383
1004.0000;786.9391
1005.0000;792.9614
1006.0000;794.0811
1007.0000;786.4987
1008.0000;783.4218
1009.0000;792.8283
1010.0000;800.4142
1011.0000;798.1346
1012.0000;789.4600
1013.0000;776.2103
1014.0000;771.0942
1015.0000;782.6075
1016.0000;801.3104
1017.0000;817.9739
1018.0000;820.0039
1019.0000;796.7615
1020.0000;770.6453
1021.0000;763.9356
1022.0000;769.2487
1023.0000;775.4175
1024.0000;783.6557
1025.0000;789.3409
1026.0000;790.5078
1027.0000;789.9326
1028.0000;779.5605
1029.0000;749.4701
1030.0000;726.6667
1031.0000;737.0914
1032.0000;762.9216
1033.0000;770.4084
1034.0000;769.6584
1035.0000;775.1154
1036.0000;779.7910
1037.0000;782.0389
1038.0000;782.2829
1039.0000;785.5867
1040.0000;787.9713
1041.0000;784.9397
1042.0000;781.3412
1043.0000;786.9717
1044.0000;795.4125
1045.0000;795.6463
1046.0000;789.8693
1047.0000;785.0459
1048.0000;781.1486
1049.0000;777.6168
1050.0000;775.3391
1051.0000;770.2704
1052.0000;769.1153
1053.0000;781.8634
1054.0000;799.3827
1055.0000;801.3401
1056.0000;792.3853
1057.0000;792.2084
1058.0000;796.7575
1059.0000;795.1691
1060.0000;792.1392
1061.0000;801.0472
1062.0000;811.7887
1063.0000;798.0369
1064.0000;774.4039
1065.0000;781.6989
1066.0000;808.1539
1067.0000;810.9209
1068.0000;793.9857
1069.0000;781.9025
1070.0000;777.5908
1071.0000;780.5496
1072.0000;788.8796
1073.0000;789.0764
1074.0000;786.0799
1075.0000;797.3069
1076.0000;814.2880
1077.0000;813.8862
1078.0000;799.8228
1079.0000;795.6938
1080.0000;801.4011
1081.0000;807.8619
1082.0000;814.1864
1083.0000;819.7834
1084.0000;823.2296
1085.0000;827.0621
1086.0000;829.9816
1087.0000;835.3578
1088.0000;837.5182
1089.0000;823.4790
1090.0000;805.0059
1091.0000;812.2835
1092.0000;837.1190
1093.0000;846.2792
1094.0000;839.3608
1095.0000;829.5012
1096.0000;821.6075
1097.0000;827.6143
1098.0000;843.1360
1099.0000;853.4686
1100.0000;853.5105
1101.0000;841.8392
1102.0000;822.9620
1103.0000;810.3480
1104.0000;810.8262
1105.0000;828.4508
1106.0000;851.8340
1107.0000;848.8344
1108.0000;830.4580
1109.0000;831.2348
1110.0000;844.4977
1111.0000;852.0342
1112.0000;853.0156
1113.0000;848.0745
1114.0000;841.4016
1115.0000;844.0836
1116.0000;851.9575
1117.0000;857.1015
1118.0000;853.9964
1119.0000;833.4703
1120.0000;812.8716
1121.0000;819.4091
1122.0000;841.5265
1123.0000;851.1714
1124.0000;852.6196
1125.0000;856.2440
1126.0000;857.3365
1127.0000;854.1666
1128.0000;854.5315
1129.0000;871.2922
1130.0000;891.0000
1131.0000;898.6570
1132.0000;894.2212
1133.0000;883.5021
1134.0000;876.0530
1135.0000;888.1008
1136.0000;902.4310
1137.0000;899.9909
1138.0000;889.8569
1139.0000;880.3223
1140.0000;880.7595
1141.0000;900.7789
1142.0000;920.3929
1143.0000;917.3405
1144.0000;913.3456
1145.0000;929.5457
1146.0000;939.5560
1147.0000;926.0430
1148.0000;913.8336
1149.0000;922.7791
1150.0000;933.5526
1151.0000;933.8163
1152.0000;936.4347
1153.0000;947.7202
1154.0000;959.2692
1155.0000;966.9471
1156.0000;966.6723
1157.0000;957.4454
1158.0000;951.9879
1159.0000;957.3992
1160.0000;967.9744
1161.0000;980.5560
1162.0000;1002.7620
1163.0000;1029.8960
1164.0000;1028.2150
1165.0000;992.0625
1166.0000;979.1120
1167.0000;1003.2400
1168.0000;1016.9620
1169.0000;1012.2460
1170.0000;1024.2820
1171.0000;1051.1480
1172.0000;1059.5500
1173.0000;1047.2910
1174.0000;1050.9750
1175.0000;1066.5890
1176.0000;1061.8870
1177.0000;1043.7070
1178.0000;1049.2430
1179.0000;1072.1000
1180.0000;1081.4830
1181.0000;1076.9730
1182.0000;1070.3070
1183.0000;1066.2600
1184.0000;1077.5050
1185.0000;1094.9020
1186.0000;1097.9840
1187.0000;1094.6060
1188.0000;1104.8160
1189.0000;1118.1270
1190.0000;1124.5930
1191.0000;1126.4770
1192.0000;1133.7450
1193.0000;1135.7110
1194.0000;1125.0170
1195.0000;1115.6690
1196.0000;1122.1040
1197.0000;1134.1800
1198.0000;1141.6050
1199.0000;1147.8890
1200.0000;1155.0180
1201.0000;1159.9150
1202.0000;1162.3800
1203.0000;1156.9100
1204.0000;1142.8670
1205.0000;1138.4660
1206.0000;1152.8280
1207.0000;1170.3240
1208.0000;1182.2010
1209.0000;1187.9760
1210.0000;1185.4040
1211.0000;1175.7450
1212.0000;1163.9740
1213.0000;1165.9680
1214.0000;1181.9160
1215.0000;1187.2440
1216.0000;1181.7020
1217.0000;1187.5960
1218.0000;1203.4210
1219.0000;1220.3520
1220.0000;1228.5430
1221.0000;1217.7530
1222.0000;1192.2310
1223.0000;1169.2940
1224.0000;1161.0080
1225.0000;1176.8410
1226.0000;1204.9200
1227.0000;1215.5900
1228.0000;1214.1070
1229.0000;1213.4950
1230.0000;1208.6300
1231.0000;1200.2490
1232.0000;1199.2080
1233.0000;1216.1140
1234.0000;1224.3130
1235.0000;1204.4280
1236.0000;1184.7150
1237.0000;1184.3740
1238.0000;1191.7050
1239.0000;1200.7690
1240.0000;1212.1560
1241.0000;1221.6670
1242.0000;1220.7490
1243.0000;1207.9700
1244.0000;1201.8590
1245.0000;1207.0380
1246.0000;1213.4900
1247.0000;1219.4640
1248.0000;1227.1080
1249.0000;1232.6580
1250.0000;1231.8800
1251.0000;1223.9870
1252.0000;1215.0350
1253.0000;1205.3340
1254.0000;1189.1930
1255.0000;1182.1600
1256.0000;1201.8090
1257.0000;1227.9630
1258.0000;1229.5520
1259.0000;1220.1010
1260.0000;1216.5660
1261.0000;1219.2440
1262.0000;1232.4070
1263.0000;1236.9840
1264.0000;1220.4890
1265.0000;1212.0620
1266.0000;1226.2300
1267.0000;1229.7130
1268.0000;1211.2430
1269.0000;1204.7450
1270.0000;1219.0150
1271.0000;1227.9650
1272.0000;1225.3510
1273.0000;1213.9910
1274.0000;1200.8340
1275.0000;1207.2050
1276.0000;1225.7830
1277.0000;1225.0640
1278.0000;1212.9220
1279.0000;1213.5180
1280.0000;1220.7600
1281.0000;1222.7830
1282.0000;1225.4740
1283.0000;1236.4610
1284.0000;1243.8930
1285.0000;1237.6070
1286.0000;1234.2380
1287.0000;1248.4610
1288.0000;1257.2920
1289.0000;1248.8580
1290.0000;1247.7460
1291.0000;1263.5740
1292.0000;1273.4900
1293.0000;1270.5150
1294.0000;1265.7280
1295.0000;1262.8990
1296.0000;1268.2740
1297.0000;1278.8410
1298.0000;1278.9810
1299.0000;1273.6190
1300.0000;1283.8720
1301.0000;1299.5930
1302.0000;1299.6050
1303.0000;1294.0440
1304.0000;1302.0180
1305.0000;1314.2820
1306.0000;1322.5700
1307.0000;1329.2020
1308.0000;1335.9100
1309.0000;1347.2320
1310.0000;1366.6380
1311.0000;1380.8410
1312.0000;1384.0690
1313.0000;1391.4840
1314.0000;1404.6630
1315.0000;1406.2680
1316.0000;1396.8410
1317.0000;1402.5490
1318.0000;1420.4140
1319.0000;1428.3480
1320.0000;1427.3660
1321.0000;1430.8960
1322.0000;1436.4170
1323.0000;1442.5780
1324.0000;1453.0100
1325.0000;1473.7370
1326.0000;1492.0720
1327.0000;1498.0630
1328.0000;1499.9290
1329.0000;1505.7000
1330.0000;1514.1920
1331.0000;1524.8500
1332.0000;1530.8270
1333.0000;1530.1230
1334.0000;1536.2690
1335.0000;1550.4640
1336.0000;1570.7960
1337.0000;1589.1190
1338.0000;1596.9740
1339.0000;1595.0270
1340.0000;1601.1590
1341.0000;1609.3330
1342.0000;1615.3690
1343.0000;1621.0860
1344.0000;1631.0460
1345.0000;1639.3560
1346.0000;1642.9460
1347.0000;1649.1980
1348.0000;1661.9040
1349.0000;1671.6610
1350.0000;1673.2580
1351.0000;1664.3370
1352.0000;1650.4970
1353.0000;1659.3300
1354.0000;1684.9780
1355.0000;1691.1060
1356.0000;1679.1450
1357.0000;1669.9080
1358.0000;1662.6670
1359.0000;1653.7930
1360.0000;1656.4840
1361.0000;1677.9840
1362.0000;1703.4550
1363.0000;1718.2740
1364.0000;1721.1830
1365.0000;1712.8750
1366.0000;1714.6850
1367.0000;1732.3190
1368.0000;1733.2970
1369.0000;1717.0040
1370.0000;1715.5250
1371.0000;1728.0630
1372.0000;1737.2470
1373.0000;1739.7600
1374.0000;1734.9570
1375.0000;1725.8750
1376.0000;1720.2450
1377.0000;1718.4700
1378.0000;1720.4110
1379.0000;1721.9760
1380.0000;1719.4780
1381.0000;1704.5520
1382.0000;1679.2650
1383.0000;1668.4010
1384.0000;1677.7740
1385.0000;1680.1760
1386.0000;1675.6390
1387.0000;1675.7900
1388.0000;1678.8240
1389.0000;1682.9430
1390.0000;1678.0390
1391.0000;1650.6080
1392.0000;1629.9370
1393.0000;1643.7860
1394.0000;1649.5500
1395.0000;1620.9380
1396.0000;1598.0290
1397.0000;1597.2430
1398.0000;1608.9090
1399.0000;1623.9580
1400.0000;1608.7320
1401.0000;1574.1830
1402.0000;1571.5600
1403.0000;1583.9440
1404.0000;1563.2150
1405.0000;1538.3200
1406.0000;1539.4270
1407.0000;1545.5110
1408.0000;1537.0880
1409.0000;1535.1320
1410.0000;1546.1010
1411.0000;1541.4310
1412.0000;1517.7690
1413.0000;1504.9160
1414.0000;1508.1840
1415.0000;1509.5830
1416.0000;1508.6180
1417.0000;1503.8790
1418.0000;1495.4910
1419.0000;1480.7490
1420.0000;1475.6900
1421.0000;1493.0900
1422.0000;1494.1040
1423.0000;1458.2180
1424.0000;1444.6080
1425.0000;1471.6180
1426.0000;1492.8240
1427.0000;1495.3150
1428.0000;1477.9340
1429.0000;1453.1720
1430.0000;1459.0630
1431.0000;1472.0520
1432.0000;1447.3130
1433.0000;1423.0610
1434.0000;1430.1970
1435.0000;1441.0020
1436.0000;1437.4300
1437.0000;1429.0490
1438.0000;1420.3730
1439.0000;1422.9330
1440.0000;1432.5130
1441.0000;1419.4680
1442.0000;1396.0270
1443.0000;1393.1520
1444.0000;1405.6210
1445.0000;1417.9130
1446.0000;1426.0410
1447.0000;1423.6620
1448.0000;1421.5970
1449.0000;1426.0720
1450.0000;1422.0640
1451.0000;1408.8220
1452.0000;1408.5400
1453.0000;1416.1560
1454.0000;1401.5670
1455.0000;1378.2760
1456.0000;1369.0850
1457.0000;1377.6890
1458.0000;1402.4090
1459.0000;1415.1310
1460.0000;1395.5960
1461.0000;1375.3620
1462.0000;1370.6650
1463.0000;1374.7610
1464.0000;1384.0290
1465.0000;1383.0220
1466.0000;1373.1880
1467.0000;1367.0220
1468.0000;1362.2190
1469.0000;1354.1620
1470.0000;1347.8890
1471.0000;1345.5240
1472.0000;1334.4790
1473.0000;1313.1250
1474.0000;1314.9550
1475.0000;1343.1170
1476.0000;1353.3480
1477.0000;1344.5030
1478.0000;1342.4180
1479.0000;1339.1410
1480.0000;1324.0520
1481.0000;1313.1350
1482.0000;1317.8130
1483.0000;1330.8130
1484.0000;1344.8960
1485.0000;1349.3600
1486.0000;1342.7690
1487.0000;1350.3110
1488.0000;1364.3330
1489.0000;1356.0010
1490.0000;1336.7360
1491.0000;1329.6180
1492.0000;1328.9660
1493.0000;1328.6320
1494.0000;1321.0050
1495.0000;1303.8620
1496.0000;1303.5160
1497.0000;1324.1160
1498.0000;1340.2620
1499.0000;1342.2220
1500.0000;1325.1580
1501.0000;1308.2040
1502.0000;1323.0710
1503.0000;1345.6640
1504.0000;1351.3600
1505.0000;1355.4540
1506.0000;1361.1120
1507.0000;1343.3120
1508.0000;1310.5060
1509.0000;1315.8340
1510.0000;1346.2770
1511.0000;1343.2310
1512.0000;1325.0620
1513.0000;1320.5260
1514.0000;1316.2850
1515.0000;1306.1770
1516.0000;1305.1330
1517.0000;1317.1500
1518.0000;1325.4360
1519.0000;1326.3590
1520.0000;1328.5700
1521.0000;1328.3830
1522.0000;1322.3880
1523.0000;1315.2240
1524.0000;1310.7430
1525.0000;1325.0240
1526.0000;1361.2960
1527.0000;1381.7130
1528.0000;1372.4680
1529.0000;1358.1840
1530.0000;1344.4010
1531.0000;1337.3900
1532.0000;1340.6990
1533.0000;1350.9160
1534.0000;1360.2770
1535.0000;1359.7780
1536.0000;1366.8440
1537.0000;1383.6180
1538.0000;1387.5310
1539.0000;1376.2300
1540.0000;1364.7730
1541.0000;1361.4350
1542.0000;1378.1690
1543.0000;1392.2480
1544.0000;1381.6010
1545.0000;1361.2400
1546.0000;1344.1540
1547.0000;1356.6430
1548.0000;1393.0390
1549.0000;1399.6160
1550.0000;1383.4240
1551.0000;1385.2680
1552.0000;1390.5240
1553.0000;1387.8970
1554.0000;1382.1010
1555.0000;1376.1300
1556.0000;1375.4610
1557.0000;1381.2240
1558.0000;1387.8910
1559.0000;1390.7600
1560.0000;1382.6410
1561.0000;1377.0150
1562.0000;1390.1090
1563.0000;1406.4610
1564.0000;1413.5890
1565.0000;1414.8370
1566.0000;1410.4890
1567.0000;1407.8010
1568.0000;1405.1560
1569.0000;1393.5850
1570.0000;1385.9460
1571.0000;1395.5360
1572.0000;1402.9100
1573.0000;1395.0590
1574.0000;1396.1170
1575.0000;1405.9060
1576.0000;1386.1840
1577.0000;1355.0490
1578.0000;1366.2950
1579.0000;1388.2620
1580.0000;1372.5660
1581.0000;1362.6370
1582.0000;1379.1830
1583.0000;1371.5030
1584.0000;1339.5120
1585.0000;1351.4030
1586.0000;1384.0320
1587.0000;1357.4160
1588.0000;1325.0960
1589.0000;1347.4140
1590.0000;1362.7900
1591.0000;1338.9930
1592.0000;1314.6040
1593.0000;1304.5870
1594.0000;1313.0580
1595.0000;1329.0000
1596.0000;1322.8950
1597.0000;1304.8560
1598.0000;1287.0300
1599.0000;1282.7080
1600.0000;1296.8130
1601.0000;1301.0150
1602.0000;1293.0560
1603.0000;1291.9530
1604.0000;1293.1700
1605.0000;1287.6060
1606.0000;1286.0150
1607.0000;1294.7780
1608.0000;1283.5320
1609.0000;1250.5640
1610.0000;1243.7480
1611.0000;1258.1040
1612.0000;1243.6420
1613.0000;1229.6910
1614.0000;1249.8750
1615.0000;1259.1570
1616.0000;1233.7790
1617.0000;1221.0470
1618.0000;1229.7460
1619.0000;1232.3990
1620.0000;1231.3330
1621.0000;1234.2760
1622.0000;1232.3880
1623.0000;1220.2970
1624.0000;1211.9550
1625.0000;1213.5820
1626.0000;1214.5770
1627.0000;1214.6140
1628.0000;1215.7280
1629.0000;1217.1320
1630.0000;1217.6210
1631.0000;1219.3570
1632.0000;1222.5700
1633.0000;1213.2780
1634.0000;1195.9520
1635.0000;1199.0470
1636.0000;1212.0390
1637.0000;1204.4050
1638.0000;1195.5030
1639.0000;1200.7420
1640.0000;1204.1540
1641.0000;1200.6230
1642.0000;1197.4350
1643.0000;1195.1790
1644.0000;1189.0490
1645.0000;1191.3200
1646.0000;1213.1430
1647.0000;1220.5590
1648.0000;1200.1480
1649.0000;1199.3980
1650.0000;1217.2510
1651.0000;1210.9810
1652.0000;1199.2840
1653.0000;1215.0470
1654.0000;1222.4610
1655.0000;1200.4970
1656.0000;1183.5250
1657.0000;1185.6340
1658.0000;1210.0350
1659.0000;1238.6760
1660.0000;1239.1860
1661.0000;1230.9860
1662.0000;1235.5860
1663.0000;1242.7520
1664.0000;1248.6990
1665.0000;1247.9370
1666.0000;1243.0450
1667.0000;1244.8340
1668.0000;1249.0100
1669.0000;1251.2760
1670.0000;1253.1980
1671.0000;1255.5850
1672.0000;1264.4140
1673.0000;1273.1700
1674.0000;1268.6010
1675.0000;1255.1650
1676.0000;1242.4800
1677.0000;1239.2210
1678.0000;1248.4950
1679.0000;1250.9960
1680.0000;1248.5100
1681.0000;1259.0840
1682.0000;1268.4960
1683.0000;1261.8570
1684.0000;1253.5570
1685.0000;1251.8690
1686.0000;1250.7900
1687.0000;1249.0400
1688.0000;1242.3370
1689.0000;1235.6880
1690.0000;1233.1480
1691.0000;1241.4930
1692.0000;1259.4230
1693.0000;1261.8040
1694.0000;1251.3610
1695.0000;1264.4450
1696.0000;1279.8980
1697.0000;1272.5750
1698.0000;1258.6450
1699.0000;1249.5690
1700.0000;1249.4570
1701.0000;1253.6510
1702.0000;1237.4880
1703.0000;1220.3890
1704.0000;1225.3000
1705.0000;1234.9670
1706.0000;1238.6600
1707.0000;1240.4570
1708.0000;1236.2060
1709.0000;1216.1810
1710.0000;1204.9960
1711.0000;1229.6060
1712.0000;1245.8460
1713.0000;1232.8780
1714.0000;1218.9790
1715.0000;1213.7860
1716.0000;1228.4540
1717.0000;1240.7830
1718.0000;1225.5290
1719.0000;1209.1040
1720.0000;1205.1120
1721.0000;1213.1750
1722.0000;1223.9670
1723.0000;1210.9320
1724.0000;1198.1470
1725.0000;1208.0860
1726.0000;1213.8820
1727.0000;1205.8390
1728.0000;1188.6680
1729.0000;1174.3450
1730.0000;1178.1140
1731.0000;1193.6320
1732.0000;1208.5270
1733.0000;1204.4690
1734.0000;1181.2790
1735.0000;1171.5200
1736.0000;1173.5470
1737.0000;1174.4600
1738.0000;1178.2430
1739.0000;1183.4110
1740.0000;1188.7250
1741.0000;1191.5770
1742.0000;1193.0530
1743.0000;1187.2390
1744.0000;1170.7470
1745.0000;1159.5750
1746.0000;1161.5380
1747.0000;1159.5870
1748.0000;1155.7360
1749.0000;1156.6850
1750.0000;1158.6990
1751.0000;1157.4660
1752.0000;1145.2280
1753.0000;1126.9590
1754.0000;1129.2450
1755.0000;1141.2530
1756.0000;1135.1480
1757.0000;1116.6350
1758.0000;1093.1600
1759.0000;1082.1960
1760.0000;1087.6810
1761.0000;1089.7960
1762.0000;1089.2440
1763.0000;1084.3170
1764.0000;1079.7550
1765.0000;1077.7840
1766.0000;1071.5720
1767.0000;1066.6670
1768.0000;1074.6600
1769.0000;1076.9880
1770.0000;1059.2890
1771.0000;1048.6730
1772.0000;1053.9650
1773.0000;1070.2300
1774.0000;1080.8890
1775.0000;1065.0550
1776.0000;1033.8750
1777.0000;1002.5580
1778.0000;990.7900
1779.0000;998.2632
1780.0000;989.1946
1781.0000;984.0232
1782.0000;993.5089
1783.0000;1008.4900
1784.0000;1019.1840
1785.0000;1014.3020
1786.0000;1002.2090
1787.0000;1004.7810
1788.0000;998.6279
1789.0000;976.4623
1790.0000;956.1838
1791.0000;946.4101
1792.0000;943.3819
1793.0000;949.3536
1794.0000;957.5911
1795.0000;963.0106
1796.0000;959.5854
1797.0000;940.0192
1798.0000;926.3209
1799.0000;947.2490
1800.0000;947.7827
1801.0000;911.1865
1802.0000;911.1047
1803.0000;934.3555
1804.0000;917.2961
1805.0000;907.1221
1806.0000;931.8917
1807.0000;950.7604
1808.0000;949.4380
1809.0000;932.7390
1810.0000;908.7381
1811.0000;893.2653
1812.0000;896.0696
1813.0000;912.7184
1814.0000;896.5355
1815.0000;870.2042
1816.0000;876.2582
1817.0000;888.0937
1818.0000;889.6047
1819.0000;896.7015
1820.0000;903.6467
1821.0000;898.6720
1822.0000;885.5169
1823.0000;872.2191
1824.0000;868.3106
1825.0000;873.2014
1826.0000;866.0086
1827.0000;857.3065
1828.0000;857.6154
1829.0000;858.5009
1830.0000;857.7778
1831.0000;861.4329
1832.0000;866.1158
1833.0000;867.1251
1834.0000;858.7805
1835.0000;843.2130
1836.0000;844.1541
1837.0000;853.5319
1838.0000;838.3990
1839.0000;827.5986
1840.0000;838.0354
1841.0000;846.1238
1842.0000;846.1530
1843.0000;841.5577
1844.0000;834.6589
1845.0000;830.2109
1846.0000;817.0101
1847.0000;801.1973
1848.0000;803.3959
1849.0000;815.6661
1850.0000;820.3088
1851.0000;833.5486
1852.0000;849.8654
1853.0000;835.4428
1854.0000;810.1316
1855.0000;815.0537
1856.0000;815.9864
1857.0000;801.9871
1858.0000;802.2880
1859.0000;812.0759
1860.0000;813.8383
1861.0000;810.5600
1862.0000;804.0625
1863.0000;797.4611
1864.0000;791.1119
1865.0000;777.5340
1866.0000;779.5503
1867.0000;804.9932
1868.0000;812.5939
1869.0000;798.5787
1870.0000;788.4521
1871.0000;780.2055
1872.0000;775.9633
1873.0000;780.5259
1874.0000;787.3793
1875.0000;773.7847
1876.0000;760.6304
1877.0000;767.7672
1878.0000;775.4003
1879.0000;777.3993
1880.0000;774.6132
1881.0000;770.1163
1882.0000;769.3757
1883.0000;763.3959
1884.0000;755.0787
1885.0000;759.9311
1886.0000;762.3865
1887.0000;744.1946
1888.0000;740.4450
1889.0000;755.3467
1890.0000;751.2966
1891.0000;748.0327
1892.0000;769.0732
1893.0000;777.1771
1894.0000;762.7544
1895.0000;752.0297
1896.0000;740.9927
1897.0000;723.8226
1898.0000;722.2579
1899.0000;740.1711
1900.0000;754.9416
1901.0000;764.8640
1902.0000;772.2839
1903.0000;762.4258
1904.0000;738.9998
1905.0000;729.9147
1906.0000;734.6174
1907.0000;742.6294
1908.0000;737.5249
1909.0000;719.8264
1910.0000;723.2294
1911.0000;733.4521
1912.0000;727.0516
1913.0000;713.8671
1914.0000;703.2328
1915.0000;712.5535
1916.0000;723.7607
1917.0000;711.8680
1918.0000;702.2408
1919.0000;703.0878
1920.0000;704.2744
1921.0000;703.6104
1922.0000;697.7648
1923.0000;692.3938
1924.0000;693.0355
1925.0000;706.6943
1926.0000;717.2105
1927.0000;707.6901
1928.0000;705.5220
1929.0000;711.3831
1930.0000;698.6777
1931.0000;687.3256
1932.0000;694.5302
1933.0000;687.1046
1934.0000;667.4396
1935.0000;663.6726
1936.0000;668.4227
1937.0000;671.9478
1938.0000;676.0025
1939.0000;674.6667
1940.0000;657.2509
1941.0000;644.0704
1942.0000;651.2087
1943.0000;669.0873
1944.0000;684.7902
1945.0000;679.2499
1946.0000;663.5504
1947.0000;651.3394
1948.0000;649.4503
1949.0000;652.5175
1950.0000;642.4534
1951.0000;636.2686
1952.0000;640.8786
1953.0000;649.5884
1954.0000;654.0146
1955.0000;645.2588
1956.0000;630.6028
1957.0000;618.8175
1958.0000;617.4136
1959.0000;621.9246
1960.0000;621.0931
1961.0000;618.2755
1962.0000;614.2798
1963.0000;608.8571
1964.0000;607.1890
1965.0000;611.7325
1966.0000;612.7210
1967.0000;608.0000
1968.0000;600.2246
1969.0000;596.1451
1970.0000;599.3727
1971.0000;598.1500
1972.0000;592.7267
1973.0000;586.2842
1974.0000;590.9716
1975.0000;606.6037
1976.0000;604.3024
1977.0000;593.9099
1978.0000;597.4681
1979.0000;593.4685
1980.0000;580.8770
1981.0000;582.3396
1982.0000;583.8768
1983.0000;570.1306
1984.0000;572.8012
1985.0000;588.2039
1986.0000;581.1948
1987.0000;576.7424
1988.0000;589.0515
1989.0000;580.4935
1990.0000;561.1730
1991.0000;562.9442
1992.0000;561.0701
1993.0000;548.3452
1994.0000;547.5305
1995.0000;558.1522
1996.0000;571.1158
1997.0000;572.2299
1998.0000;557.4460
1999.0000;538.3261
2000.0000;532.4389
2001.0000;549.9053
2002.0000;552.0770
2003.0000;538.4905
2004.0000;532.4786
2005.0000;535.3913
2006.0000;543.6642
2007.0000;531.4982
2008.0000;511.6209
2009.0000;506.5508
2010.0000;519.6235
2011.0000;543.0152
2012.0000;551.6810
2013.0000;537.8425
2014.0000;507.6841
2015.0000;516.7441
2016.0000;549.5474
2017.0000;535.0784
2018.0000;515.6616
2019.0000;515.3080
2020.0000;523.2500
2021.0000;527.4827
2022.0000;512.3293
2023.0000;513.5166
2024.0000;531.5443
2025.0000;524.9407
2026.0000;514.4492
2027.0000;516.7538
2028.0000;508.8422
2029.0000;505.3334
2030.0000;535.6490
2031.0000;549.1879
2032.0000;528.9294
2033.0000;520.0145
2034.0000;514.8245
2035.0000;503.1746
2036.0000;491.6966
2037.0000;484.4899
2038.0000;477.5365
2039.0000;482.0962
2040.0000;498.5666
2041.0000;515.1814
2042.0000;516.0287
2043.0000;490.4242
2044.0000;488.0780
2045.0000;509.3369
2046.0000;486.9838
2047.0000;470.3741
2048.0000;493.9387
2049.0000;504.5596
2050.0000;499.5500
2051.0000;492.9508
2052.0000;483.8190
2053.0000;478.0168
2054.0000;484.4953
2055.0000;490.8599
2056.0000;484.8188
2057.0000;484.1536
2058.0000;483.5555
2059.0000;465.6708
2060.0000;468.0159
2061.0000;494.4394
2062.0000;485.3103
2063.0000;470.5314
2064.0000;482.8867
2065.0000;479.8798
2066.0000;465.4849
2067.0000;466.0739
2068.0000;467.4178
2069.0000;464.4571
2070.0000;467.4339
2071.0000;469.1269
2072.0000;462.3592
2073.0000;454.8342
2074.0000;451.1402
2075.0000;452.3558
2076.0000;455.3138
2077.0000;457.3521
2078.0000;459.6934
2079.0000;466.1473
2080.0000;478.1238
2081.0000;474.0089
2082.0000;456.6953
2083.0000;445.9854
2084.0000;449.1281
2085.0000;464.0969
2086.0000;467.9122
2087.0000;462.5862
2088.0000;455.1141
2089.0000;455.9438
2090.0000;463.4456
2091.0000;467.5098
2092.0000;460.2820
2093.0000;446.9851
2094.0000;458.5356
2095.0000;467.5243
2096.0000;451.8193
2097.0000;444.8422
2098.0000;444.2326
2099.0000;435.3325
2100.0000;440.8237
2101.0000;456.4681
2102.0000;446.4918
2103.0000;437.2456
2104.0000;445.3864
2105.0000;441.5273
2106.0000;429.4398
2107.0000;419.9269
2108.0000;418.3437
2109.0000;424.0541
2110.0000;423.9972
2111.0000;433.7152
2112.0000;450.0820
2113.0000;428.5925
2114.0000;411.6655
2115.0000;440.8351
2116.0000;451.6368
2117.0000;438.0564
2118.0000;421.7045
2119.0000;418.8631
2120.0000;432.1681
2121.0000;434.4113
2122.0000;434.3648
2123.0000;436.1031
2124.0000;421.7292
2125.0000;405.3943
2126.0000;407.4690
2127.0000;403.6944
2128.0000;395.7513
2129.0000;398.1231
2130.0000;412.8306
2131.0000;431.4306
2132.0000;429.3775
2133.0000;421.7250
2134.0000;426.2406
2135.0000;428.9930
2136.0000;424.1957
2137.0000;408.8701
2138.0000;398.3209
2139.0000;403.9619
2140.0000;433.6975
2141.0000;432.6418
2142.0000;388.4268
2143.0000;392.7250
2144.0000;418.4772
2145.0000;426.7717
2146.0000;420.7519
2147.0000;405.2672
2148.0000;394.2639
2149.0000;393.4489
2150.0000;401.0568
2151.0000;401.2923
2152.0000;404.1310
2153.0000;410.7281
2154.0000;405.4834
2155.0000;406.0518
2156.0000;425.6787
2157.0000;431.7611
2158.0000;422.1698
2159.0000;409.6094
2160.0000;397.5024
2161.0000;390.9249
2162.0000;386.5636
2163.0000;387.6450
2164.0000;390.9785
2165.0000;385.3984
2166.0000;381.9063
2167.0000;387.9003
2168.0000;388.2874
2169.0000;392.0137
2170.0000;409.0571
2171.0000;404.5713
2172.0000;386.3145
2173.0000;389.0722
2174.0000;396.8634
2175.0000;401.9531
2176.0000;404.6593
2177.0000;396.2707
2178.0000;380.2513
2179.0000;384.2911
2180.0000;397.4840
2181.0000;402.9391
2182.0000;404.1705
2183.0000;398.7948
2184.0000;388.7545
2185.0000;381.8706
2186.0000;381.6768
2187.0000;384.5770
2188.0000;384.5548
2189.0000;380.7303
2190.0000;383.4641
2191.0000;379.4301
2192.0000;366.5173
2193.0000;370.9220
2194.0000;381.5770
2195.0000;382.7774
2196.0000;376.2758
2197.0000;372.1621
2198.0000;383.2565
2199.0000;380.5356
2200.0000;369.6943
2201.0000;377.0617
2202.0000;387.1470
2203.0000;389.9548
2204.0000;379.1514
2205.0000;374.1417
2206.0000;383.6931
2207.0000;386.4911
2208.0000;388.7546
2209.0000;391.0578
2210.0000;364.5208
2211.0000;345.0925
2212.0000;369.6306
2213.0000;376.2582
2214.0000;368.9667
2215.0000;373.5536
2216.0000;377.8836
2217.0000;381.0641
2218.0000;388.7796
2219.0000;381.1837
2220.0000;361.7822
2221.0000;359.1556
2222.0000;364.1650
2223.0000;368.7564
2224.0000;368.8597
2225.0000;372.3952
2226.0000;380.5280
2227.0000;364.1279
2228.0000;353.8330
2229.0000;376.6442
2230.0000;374.6891
2231.0000;359.4555
2232.0000;360.5666
2233.0000;369.4002
2234.0000;375.3548
2235.0000;364.1354
2236.0000;362.2823
2237.0000;373.8387
2238.0000;384.1912
2239.0000;378.7550
2240.0000;360.4476
2241.0000;355.5574
2242.0000;359.7874
2243.0000;364.7418
2244.0000;351.6606
2245.0000;346.0651
2246.0000;361.6371
2247.0000;374.9308
2248.0000;380.0956
2249.0000;375.1229
2250.0000;361.5806
2251.0000;357.2529
2252.0000;373.6835
2253.0000;361.4792
2254.0000;339.0680
2255.0000;342.3876
2256.0000;351.3494
2257.0000;359.8091
2258.0000;364.0410
2259.0000;360.7413
2260.0000;353.3592
2261.0000;351.8084
2262.0000;351.0875
2263.0000;351.4908
2264.0000;356.2422
2265.0000;358.2229
2266.0000;355.6516
2267.0000;355.3789
2268.0000;352.3830
2269.0000;346.7909
2270.0000;343.7397
2271.0000;347.4309
2272.0000;357.5146
2273.0000;370.3086
2274.0000;369.9312
2275.0000;352.6121
2276.0000;342.7422
2277.0000;339.7310
2278.0000;340.3615
2279.0000;346.5742
2280.0000;354.5572
2281.0000;357.5731
2282.0000;349.4360
2283.0000;341.1806
2284.0000;344.8253
2285.0000;329.4302
2286.0000;316.1682
2287.0000;332.0270
2288.0000;347.4325
2289.0000;349.2292
2290.0000;333.7681
2291.0000;328.6096
2292.0000;335.8732
2293.0000;343.1525
2294.0000;334.3011
2295.0000;325.8158
2296.0000;350.4361
2297.0000;349.2549
2298.0000;326.7307
2299.0000;328.2396
2300.0000;332.5390
2301.0000;333.8431
2302.0000;333.2422
2303.0000;326.3750
2304.0000;318.5253
2305.0000;320.9646
2306.0000;332.1194
2307.0000;343.7859
2308.0000;345.0514
2309.0000;332.3182
2310.0000;312.6483
2311.0000;298.0297
2312.0000;305.4686
2313.0000;326.5834
2314.0000;325.1798
2315.0000;315.3932
2316.0000;308.5143
2317.0000;312.3427
2318.0000;317.8404
2319.0000;319.0240
2320.0000;317.6418
2321.0000;316.5962
2322.0000;316.5507
2323.0000;311.5099
2324.0000;321.0918
2325.0000;336.9576
2326.0000;312.3160
2327.0000;305.4545
2328.0000;325.6644
2329.0000;304.9837
2330.0000;291.8201
2331.0000;302.0702
2332.0000;303.2172
2333.0000;302.6509
2334.0000;302.7012
2335.0000;305.5345
2336.0000;298.4457
2337.0000;285.0810
2338.0000;288.0515
2339.0000;304.4021
2340.0000;316.5904
2341.0000;295.1355
2342.0000;274.8568
2343.0000;275.7245
2344.0000;284.8132
2345.0000;299.6978
2346.0000;308.1440
2347.0000;298.2842
2348.0000;289.3417
2349.0000;287.6909
2350.0000;281.5880
2351.0000;259.9714
2352.0000;241.3900
2353.0000;268.1911
2354.0000;278.0713
2355.0000;261.4832
2356.0000;261.0208
2357.0000;264.7263
2358.0000;262.8991
2359.0000;244.4880
2360.0000;233.7148
2361.0000;244.1339
2362.0000;273.4661
2363.0000;274.0968
2364.0000;246.7681
2365.0000;227.8746
2366.0000;231.0861
2367.0000;241.8902
2368.0000;228.3227
2369.0000;211.6811
2370.0000;206.8272
2371.0000;221.1491
2372.0000;214.5785
2373.0000;197.7967
2374.0000;195.7642
2375.0000;197.2014
2376.0000;206.7807
2377.0000;222.2051
2378.0000;214.4194
2379.0000;196.9289
2380.0000;191.4471
2381.0000;192.4217
2382.0000;193.1930
2383.0000;190.5189
2384.0000;208.6614
2385.0000;221.5452
2386.0000;213.1291
2387.0000;204.2399
2388.0000;208.2172
2389.0000;224.3333
2390.0000;223.0212
2391.0000;213.5377
2392.0000;205.3592
2393.0000;204.4254
2394.0000;206.9780
2395.0000;213.1934
2396.0000;227.6605
2397.0000;237.6749
2398.0000;235.3418
2399.0000;223.1958
2400.0000;226.0522
2401.0000;237.6465
2402.0000;234.2800
2403.0000;231.7356
2404.0000;236.7869
2405.0000;250.1649
2406.0000;247.8883
2407.0000;242.5043
2408.0000;249.7235
2409.0000;240.0079
2410.0000;235.1792
2411.0000;249.2297
2412.0000;245.2147
2413.0000;242.4110
2414.0000;249.6375
2415.0000;240.3699
2416.0000;243.2490
2417.0000;259.4743
2418.0000;248.5222
2419.0000;254.3110
2420.0000;276.8341
2421.0000;278.2717
2422.0000;269.2333
2423.0000;259.4899
2424.0000;259.1548
2425.0000;252.7628
2426.0000;248.9460
2427.0000;258.4870
2428.0000;257.4102
2429.0000;258.6595
2430.0000;273.6675
2431.0000;273.2362
2432.0000;259.1992
2433.0000;242.3109
2434.0000;226.5531
2435.0000;238.3085
2436.0000;269.0082
2437.0000;262.0659
2438.0000;261.3730
2439.0000;271.7256
2440.0000;261.8495
2441.0000;261.0656
2442.0000;263.4036
2443.0000;248.7411
2444.0000;260.2573
2445.0000;271.9691
2446.0000;251.3285
2447.0000;259.8173
2448.0000;271.4322
2449.0000;262.0486
2450.0000;264.2802
2451.0000;271.5317
2452.0000;273.0657
2453.0000;252.8665
2454.0000;245.9285
2455.0000;255.8967
2456.0000;251.0003
2457.0000;246.9778
2458.0000;248.3810
2459.0000;254.1661
2460.0000;258.1775
2461.0000;257.3426
2462.0000;254.0771
2463.0000;265.7812
2464.0000;270.8262
2465.0000;259.1147
2466.0000;259.4139
2467.0000;270.5334
2468.0000;277.9574
2469.0000;253.8109
2470.0000;257.8640
2471.0000;273.1768
2472.0000;243.1462
2473.0000;242.2835
2474.0000;263.0840
2475.0000;271.5190
2476.0000;268.3273
2477.0000;258.5276
2478.0000;249.5057
2479.0000;231.0551
2480.0000;227.2642
2481.0000;237.6318
2482.0000;230.2694
2483.0000;240.6261
2484.0000;260.0314
2485.0000;259.6372
2486.0000;259.4293
2487.0000;255.6522
2488.0000;248.0513
2489.0000;257.9231
2490.0000;269.4382
2491.0000;265.9248
2492.0000;242.2298
2493.0000;242.2020
2494.0000;265.4561
2495.0000;267.6346
2496.0000;252.4039
2497.0000;241.2018
2498.0000;255.8863
2499.0000;254.4555
2500.0000;246.8439
2501.0000;245.6773
2502.0000;244.0766
2503.0000;240.1530
2504.0000;240.5359
2505.0000;259.9943
2506.0000;264.7157
2507.0000;255.9390
2508.0000;254.0716
2509.0000;249.3631
2510.0000;244.2551
2511.0000;242.8967
2512.0000;250.2838
2513.0000;248.9358
2514.0000;235.2093
2515.0000;226.2398
2516.0000;236.0839
2517.0000;258.1568
2518.0000;270.1822
2519.0000;253.4124
2520.0000;238.1687
2521.0000;247.2623
2522.0000;233.4630
2523.0000;223.2484
2524.0000;225.9538
2525.0000;226.3017
2526.0000;231.8553
2527.0000;232.7467
2528.0000;220.1532
2529.0000;227.8804
2530.0000;243.1102
2531.0000;245.3333
2532.0000;223.4853
2533.0000;221.7709
2534.0000;237.9916
2535.0000;224.5504
2536.0000;233.3749
2537.0000;254.4273
2538.0000;257.6665
2539.0000;235.9857
2540.0000;215.5599
2541.0000;214.2485
2542.0000;213.0260
2543.0000;226.7463
2544.0000;237.4716
2545.0000;220.0081
2546.0000;222.8366
2547.0000;230.7965
2548.0000;225.7201
2549.0000;227.7079
2550.0000;222.9055
2551.0000;213.1746
2552.0000;213.9745
2553.0000;208.9656
2554.0000;199.2911
2555.0000;192.8241
2556.0000;193.1847
2557.0000;206.7816
2558.0000;221.0912
2559.0000;204.6454
2560.0000;202.0859
2561.0000;216.4536
2562.0000;225.4873
2563.0000;225.9082
2564.0000;216.9141
2565.0000;206.3116
2566.0000;205.2420
2567.0000;206.1555
2568.0000;208.4508
2569.0000;214.8812
2570.0000;215.3145
2571.0000;216.6833
2572.0000;221.3333
2573.0000;207.9798
2574.0000;205.2871
2575.0000;214.2161
2576.0000;210.0776
2577.0000;219.9606
2578.0000;223.7481
2579.0000;208.8448
2580.0000;219.4081
2581.0000;229.1959
2582.0000;223.4317
2583.0000;206.8136
2584.0000;206.6934
2585.0000;206.0618
2586.0000;188.9211
2587.0000;191.6266
2588.0000;208.7053
2589.0000;221.7010
2590.0000;209.6455
2591.0000;195.7493
2592.0000;195.8769
2593.0000;210.7576
2594.0000;208.0854
2595.0000;197.2096
2596.0000;189.5653
2597.0000;192.3051
2598.0000;208.6409
2599.0000;218.8499
2600.0000;211.3638
2601.0000;223.3091
2602.0000;223.6449
2603.0000;210.6646
2604.0000;208.5060
2605.0000;208.1431
2606.0000;211.8122
2607.0000;215.5847
2608.0000;200.7384
2609.0000;204.2289
2610.0000;214.4288
2611.0000;193.5058
2612.0000;196.2417
2613.0000;207.9380
2614.0000;206.4232
2615.0000;188.2635
2616.0000;191.7797
2617.0000;205.6687
2618.0000;196.2580
2619.0000;196.0392
2620.0000;199.1923
2621.0000;198.2073
2622.0000;190.1417
2623.0000;180.6087
2624.0000;181.3796
2625.0000;196.6721
2626.0000;211.6671
2627.0000;208.8393
2628.0000;191.8698
2629.0000;185.9330
2630.0000;189.2785
2631.0000;191.1682
2632.0000;184.9741
2633.0000;188.3516
2634.0000;177.2085
2635.0000;156.9557
2636.0000;150.8826
2637.0000;161.2205
2638.0000;176.5007
2639.0000;182.7530
2640.0000;180.9163
2641.0000;170.2150
2642.0000;164.8945
2643.0000;174.8650
2644.0000;181.2193
2645.0000;178.5606
2646.0000;170.0970
2647.0000;166.4260
2648.0000;164.5445
2649.0000;150.3365
2650.0000;130.8827
2651.0000;142.5598
2652.0000;148.5200
2653.0000;155.2500
2654.0000;170.9814
2655.0000;150.7310
2656.0000;130.1670
2657.0000;128.7824
2658.0000;137.4449
2659.0000;140.7410
2660.0000;136.7110
2661.0000;131.7454
2662.0000;137.3776
2663.0000;128.2618
2664.0000;118.9252
2665.0000;126.8972
2666.0000;129.9682
2667.0000;122.6004
2668.0000;118.5162
2669.0000;136.4300
2670.0000;134.5749
2671.0000;121.0890
2672.0000;110.9254
2673.0000;112.0277
2674.0000;112.7110
2675.0000;104.3949
2676.0000;90.2413
2677.0000;92.5224
2678.0000;111.1779
2679.0000;119.3818
2680.0000;97.7538
2681.0000;103.7444
2682.0000;107.0742
2683.0000;104.2725
2684.0000;116.0049
2685.0000;114.1917
2686.0000;109.6882
2687.0000;109.9055
2688.0000;105.6942
2689.0000;108.4736
2690.0000;111.3453
2691.0000;110.5204
2692.0000;124.9534
2693.0000;110.2984
2694.0000;88.6826
2695.0000;98.1222
2696.0000;95.5206
2697.0000;84.3548
2698.0000;81.4160
2699.0000;100.0962
2700.0000;84.7075
2701.0000;91.6486
2702.0000;120.1465
2703.0000;98.9649
2704.0000;91.9336
2705.0000;96.0909
2706.0000;97.5758
2707.0000;90.3559
2708.0000;99.6665
2709.0000;109.1281
2710.0000;95.9943
2711.0000;64.8617
2712.0000;58.7364
2713.0000;84.7967
2714.0000;112.6667
2715.0000;97.4672
2716.0000;94.8388
2717.0000;104.4825
2718.0000;93.2848
2719.0000;84.5518
2720.0000;95.4840
2721.0000;109.4955
2722.0000;94.5312
2723.0000;106.0262
2724.0000;111.4583
2725.0000;100.7050
2726.0000;101.9623
2727.0000;100.5831
2728.0000;109.9430
2729.0000;122.7872
2730.0000;106.9805
2731.0000;97.4914
2732.0000;94.4504
2733.0000;95.2232
2734.0000;104.4261
2735.0000;108.9289
2736.0000;110.3880
2737.0000;108.7850
2738.0000;90.3612
2739.0000;107.9900
2740.0000;122.3467
2741.0000;99.7027
2742.0000;107.1441
2743.0000;123.0428
2744.0000;125.6879
2745.0000;107.6266
2746.0000;96.8927
2747.0000;101.5139
2748.0000;111.6903
2749.0000;113.9348
2750.0000;125.7029
2751.0000;118.7249
2752.0000;108.7411
2753.0000;115.1140
2754.0000;82.1457
2755.0000;89.5112
2756.0000;115.0841
2757.0000;101.0000
2758.0000;103.2969
2759.0000;93.7548
2760.0000;94.2288
2761.0000;127.3333
2762.0000;134.7865
2763.0000;127.2997
2764.0000;117.8754
2765.0000;118.3333
2766.0000;129.2786
2767.0000;137.8862
2768.0000;133.7200
2769.0000;120.0000
2770.0000;118.1719
2771.0000;123.6098
2772.0000;121.9886
2773.0000;109.3126
2774.0000;121.3691
2775.0000;120.0630
2776.0000;114.2681
2777.0000;124.0894
2778.0000;118.7333
2779.0000;111.9971
2780.0000;109.2388
2781.0000;111.2808
2782.0000;120.3319
2783.0000;128.1895
2784.0000;133.9724
2785.0000;135.1235
2786.0000;117.4082
2787.0000;114.5399
2788.0000;124.2489
2789.0000;128.2007
2790.0000;119.1991
2791.0000;115.8224
2792.0000;123.5181
2793.0000;132.5072
2794.0000;123.3427
2795.0000;120.8386
2796.0000;126.2484
2797.0000;128.0317
2798.0000;113.6757
2799.0000;121.2648
2800.0000;128.4860
2801.0000;123.4885
2802.0000;125.8038
2803.0000;141.0531
2804.0000;145.4539
2805.0000;134.6291
2806.0000;128.7244
2807.0000;133.5917
2808.0000;130.8457
2809.0000;127.1006
2810.0000;137.9692
2811.0000;125.0156
2812.0000;116.7995
2813.0000;120.3708
2814.0000;127.7075
2815.0000;141.6221
2816.0000;135.8846
2817.0000;126.9148
2818.0000;130.8813
2819.0000;120.8009
2820.0000;120.1591
2821.0000;124.9732
2822.0000;122.9314
2823.0000;109.1522
2824.0000;120.9840
2825.0000;136.3546
2826.0000;134.9735
2827.0000;124.1306
2828.0000;137.8866
2829.0000;148.6706
2830.0000;134.8121
2831.0000;107.5720
2832.0000;130.9935
2833.0000;148.9539
2834.0000;140.0374
2835.0000;121.7795
2836.0000;129.3238
2837.0000;110.1777
2838.0000;104.7929
2839.0000;125.1228
2840.0000;107.7804
2841.0000;110.6435
2842.0000;120.9250
2843.0000;118.6336
2844.0000;103.4131
2845.0000;124.4320
2846.0000;123.0162
2847.0000;105.4814
2848.0000;109.1196
2849.0000;111.1887
2850.0000;108.3079
2851.0000;113.6250
2852.0000;126.3354
2853.0000;116.9283
2854.0000;105.8398
2855.0000;102.2623
2856.0000;110.5945
2857.0000;121.7778
2858.0000;99.3061
2859.0000;86.8391
2860.0000;93.0984
2861.0000;101.0744
2862.0000;114.7622
2863.0000;110.9161
2864.0000;100.9874
2865.0000;97.3405
2866.0000;92.7189
2867.0000;113.2723
2868.0000;117.3750
2869.0000;95.2264
2870.0000;82.7512
2871.0000;113.7325
2872.0000;117.7096
2873.0000;101.8471
2874.0000;99.4327
2875.0000;103.7511
2876.0000;114.5939
2877.0000;113.3155
2878.0000;103.0206
2879.0000;105.3328
2880.0000;98.7800
2881.0000;92.2516
2882.0000;88.9286
2883.0000;86.8966
2884.0000;83.4025
2885.0000;80.1265
2886.0000;91.3809
2887.0000;105.8100
2888.0000;97.0749
2889.0000;109.3047
2890.0000;115.8993
2891.0000;113.8960
2892.0000;114.9414
2893.0000;119.9301
2894.0000;102.8713
2895.0000;99.8777
2896.0000;112.2676
2897.0000;101.1964
2898.0000;103.9964
2899.0000;108.5106
2900.0000;107.7313
2901.0000;96.3097
2902.0000;69.9208
2903.0000;78.6379
2904.0000;105.2342
2905.0000;112.1789
2906.0000;89.0669
2907.0000;97.1661
2908.0000;106.5202
2909.0000;108.5307
2910.0000;100.6575
2911.0000;81.8832
2912.0000;93.4268
2913.0000;108.9570
2914.0000;109.1243
2915.0000;99.5513
2916.0000;98.7805
2917.0000;93.7209
2918.0000;92.7827
2919.0000;95.0361
2920.0000;89.0135
2921.0000;98.8755
2922.0000;94.2367
2923.0000;94.9204
2924.0000;112.9534
2925.0000;104.3435
2926.0000;91.2506
2927.0000;84.1257
2928.0000;89.3781
2929.0000;96.3672
2930.0000;73.3438
2931.0000;71.0551
2932.0000;91.9993
2933.0000;105.3512
2934.0000;85.0000
2935.0000;82.4634
2936.0000;79.8568
2937.0000;78.0490
2938.0000;82.7869
2939.0000;90.4066
2940.0000;76.3921
2941.0000;73.5047
2942.0000;86.1558
2943.0000;92.8769
2944.0000;82.0529
2945.0000;83.4681
2946.0000;88.6265
2947.0000;90.3563
2948.0000;88.4742
2949.0000;79.4721
2950.0000;88.0183
2951.0000;92.8091
2952.0000;85.0689
2953.0000;82.3128
2954.0000;83.2784
2955.0000;69.8942
2956.0000;61.4598
2957.0000;67.6186
2958.0000;68.3235
2959.0000;70.1208
2960.0000;72.3423
2961.0000;76.1238
2962.0000;77.0683
2963.0000;68.8086
2964.0000;73.5041
2965.0000;76.2308
2966.0000;78.4376
2967.0000;81.4310
2968.0000;72.7103
2969.0000;73.1108
2970.0000;79.3147
2971.0000;85.2006
2972.0000;82.0213
2973.0000;64.1919
2974.0000;69.1135
2975.0000;71.9476
2976.0000;66.0337
2977.0000;58.2528
2978.0000;45.1990
2979.0000;58.4740
2980.0000;63.9688
2981.0000;57.7958
2982.0000;61.9310
2983.0000;76.6789
2984.0000;76.8230
2985.0000;83.4393
2986.0000;88.4464
2987.0000;75.8536
2988.0000;66.8260
2989.0000;62.5771
2990.0000;64.9407
2991.0000;72.1751
2992.0000;71.4006
2993.0000;45.8805
2994.0000;59.7802
2995.0000;57.4081
2996.0000;57.7801
2997.0000;79.9890
2998.0000;58.2473
2999.0000;67.2533
3000.0000;72.4192
3001.0000;64.8491
3002.0000;59.3348
3003.0000;66.1359
3004.0000;65.1343
3005.0000;68.3833
3006.0000;61.5632
3007.0000;55.3988
3008.0000;82.6667
3009.0000;61.0635
3010.0000;48.5729
3011.0000;57.2039
3012.0000;71.4702
3013.0000;72.0076
3014.0000;47.1786
3015.0000;58.4352
3016.0000;61.2882
3017.0000;47.1162
3018.0000;54.4821
3019.0000;45.8010
3020.0000;47.0890
3021.0000;62.0034
3022.0000;67.6878
3023.0000;57.4239
3024.0000;74.0321
3025.0000;64.2135
3026.0000;59.8448
3027.0000;57.6940
3028.0000;43.8571
3029.0000;35.2670
3030.0000;59.0383
3031.0000;39.3298
3032.0000;31.2866
3033.0000;57.9435
3034.0000;53.3522
3035.0000;63.4823
3036.0000;59.3569
3037.0000;42.3319
3038.0000;36.8250
3039.0000;50.7143
3040.0000;42.7927
3041.0000;47.8881
3042.0000;54.5000
3043.0000;48.9547
3044.0000;36.5098
3045.0000;38.3333
3046.0000;44.1232
3047.0000;40.6929
3048.0000;35.3064
3049.0000;35.7738
3050.0000;37.9114
3051.0000;35.5614
3052.0000;41.7097
3053.0000;52.6015
3054.0000;49.9876
3055.0000;30.8561
3056.0000;25.2333
3057.0000;46.8198
3058.0000;54.6379
3059.0000;54.3363
3060.0000;51.3495
3061.0000;41.3060
3062.0000;56.9193
3063.0000;47.2722
3064.0000;42.5533
3065.0000;40.8398
3066.0000;33.2315
3067.0000;43.3105
3068.0000;30.2531
3069.0000;41.6141
3070.0000;33.9524
3071.0000;13.6763
3072.0000;24.4355
3073.0000;10.2735
3074.0000;14.9255
3075.0000;31.8671
3076.0000;36.2327
3077.0000;34.0591
3078.0000;53.8513
3079.0000;44.0027
3080.0000;39.6920
3081.0000;25.8108
3082.0000;20.8556
3083.0000;36.7627
3084.0000;28.6667
3085.0000;22.6138
3086.0000;8.4734
3087.0000;16.8021
3088.0000;37.1933
3089.0000;29.2478
3090.0000;10.6365
3091.0000;23.9373
3092.0000;27.6565
3093.0000;14.0510
3094.0000;3.7284
3095.0000;11.8735
3096.0000;30.5898
3097.0000;38.3516
3098.0000;32.4804
3099.0000;23.3706
3100.0000;25.9965
3101.0000;38.1437
3102.0000;23.7029
3103.0000;5.5098
3104.0000;13.4679
3105.0000;29.2012
3106.0000;25.3561
3107.0000;17.2537
3108.0000;22.8403
3109.0000;11.9586
3110.0000;5.8002
3111.0000;9.3563
3112.0000;10.2130
3113.0000;9.7313
3114.0000;24.0977
3115.0000;20.6340
3116.0000;16.3895
3117.0000;25.4834
3118.0000;38.2333
3119.0000;35.8703
3120.0000;18.1956
3121.0000;9.3911
3122.0000;24.0700
3123.0000;24.2889
3124.0000;5.7429
3125.0000;26.9102
3126.0000;22.0272
3127.0000;27.4916
3128.0000;30.6206
3129.0000;29.3251
3130.0000;38.6598
3131.0000;55.0552
3132.0000;26.0257
3133.0000;38.2266
3134.0000;43.0827
3135.0000;37.9443
3136.0000;33.9326
3137.0000;21.5561
3138.0000;27.2738
3139.0000;36.5286
3140.0000;35.6030
3141.0000;26.4681
3142.0000;23.4605
3143.0000;34.0928
3144.0000;44.9936
3145.0000;31.1866
3146.0000;36.2331
3147.0000;45.9473
3148.0000;38.5091
3149.0000;31.1497
3150.0000;55.0872
3151.0000;52.7755
3152.0000;40.6071
3153.0000;29.2696
3154.0000;23.3110
3155.0000;23.8275
3156.0000;29.4631
3157.0000;28.9209
3158.0000;22.7429
3159.0000;32.5958
3160.0000;37.4799
3161.0000;28.4383
3162.0000;28.4022
3163.0000;42.1435
3164.0000;45.7107
3165.0000;42.3161
3166.0000;44.1774
3167.0000;43.0611
3168.0000;40.9555
3169.0000;55.5256
3170.0000;49.7260
3171.0000;65.7290
3172.0000;45.6640
3173.0000;31.1963
3174.0000;40.9214
3175.0000;34.2754
3176.0000;18.3993
3177.0000;41.1126
3178.0000;41.6538
3179.0000;32.0643
3180.0000;40.8154
3181.0000;47.4044
3182.0000;24.4668
3183.0000;36.5193
3184.0000;37.7109
3185.0000;55.8504
3186.0000;49.1771
3187.0000;31.1366
3188.0000;33.1909
3189.0000;30.0672
3190.0000;29.6849
3191.0000;26.6402
3192.0000;43.2213
3193.0000;43.8254
3194.0000;35.2693
3195.0000;42.9581
3196.0000;38.2597
3197.0000;37.3450
3198.0000;47.9687
3199.0000;49.5709
3200.0000;32.8990
3201.0000;38.5183
3202.0000;62.9495
3203.0000;26.1930
3204.0000;28.8115
3205.0000;31.0699
3206.0000;54.8590
3207.0000;64.8478
3208.0000;45.6792
3209.0000;36.5665
3210.0000;57.7795
3211.0000;47.9273
3212.0000;41.9545
3213.0000;37.7932
3214.0000;45.1904
3215.0000;48.4088
3216.0000;41.9269
3217.0000;50.8470
3218.0000;32.9733
3219.0000;50.3180
3220.0000;45.2590
3221.0000;41.7747
3222.0000;47.4596
3223.0000;51.7995
3224.0000;63.6774
3225.0000;56.1056
3226.0000;51.8906
3227.0000;47.4282
3228.0000;38.8682
3229.0000;40.0284
3230.0000;51.8851
3231.0000;59.7242
3232.0000;67.6728
3233.0000;44.1849
3234.0000;45.0440
3235.0000;53.2035
3236.0000;52.6298
3237.0000;50.3829
3238.0000;51.5215
3239.0000;46.2375
3240.0000;53.5995
3241.0000;67.2860
3242.0000;61.6662
3243.0000;63.0134
3244.0000;57.1657
3245.0000;42.0673
3246.0000;50.7025
3247.0000;52.3090
3248.0000;40.7037
3249.0000;50.7235
3250.0000;61.4310
3251.0000;70.3257
3252.0000;69.5310
3253.0000;52.8846
3254.0000;40.6913
3255.0000;46.3504
3256.0000;44.3642
3257.0000;48.9053
3258.0000;59.6595
3259.0000;61.3910
3260.0000;59.8667
3261.0000;65.2664
3262.0000;57.6000
3263.0000;38.8299
3264.0000;31.6496
3265.0000;49.2510
3266.0000;36.2888
3267.0000;20.7605
3268.0000;39.2473
3269.0000;48.7153
3270.0000;21.5505
3271.0000;51.0890
3272.0000;44.1045
3273.0000;45.1458
3274.0000;49.8909
3275.0000;44.1458
3276.0000;33.1641
3277.0000;36.1921
3278.0000;47.3568
3279.0000;27.1420
3280.0000;25.5497
3281.0000;44.6320
3282.0000;44.8332
3283.0000;28.6182
3284.0000;15.8456
3285.0000;29.9995
3286.0000;63.1056
3287.0000;33.6659
3288.0000;15.4003
3289.0000;19.5735
3290.0000;33.4847
3291.0000;27.1140
3292.0000;21.6900
3293.0000;23.7389
3294.0000;19.5179
3295.0000;39.6750
3296.0000;18.5131
3297.0000;22.5519
3298.0000;24.8307
3299.0000;41.7744
3300.0000;33.8239
3301.0000;17.6270
3302.0000;25.9084
3303.0000;19.8557
3304.0000;21.5042
3305.0000;21.3415
3306.0000;6.8003
3307.0000;21.0610
3308.0000;30.6404
3309.0000;30.7340
3310.0000;25.8319
3311.0000;16.3867
3312.0000;19.8532
3313.0000;10.3259
3314.0000;33.7954
3315.0000;44.9126
3316.0000;35.5908
3317.0000;33.4564
3318.0000;34.2379
3319.0000;41.9778
3320.0000;48.2118
3321.0000;18.3456
3322.0000;30.8310
3323.0000;50.2087
3324.0000;57.0007
3325.0000;46.5425
3326.0000;36.1631
3327.0000;44.0085
3328.0000;38.4563
3329.0000;11.7740
3330.0000;15.4064
3331.0000;28.6505
3332.0000;59.1117
3333.0000;40.3444
3334.0000;15.1143
3335.0000;20.9201
3336.0000;38.6336
3337.0000;35.8159
3338.0000;26.7944
3339.0000;33.7636
3340.0000;34.1467
3341.0000;33.3479
3342.0000;43.2250
3343.0000;18.6670
3344.0000;24.4483
3345.0000;24.6563
3346.0000;34.0447
3347.0000;34.5878
3348.0000;13.5939
3349.0000;23.8809
3350.0000;22.5276
3351.0000;16.0400
3352.0000;29.0667
3353.0000;37.2451
3354.0000;38.5898
3355.0000;34.8700
3356.0000;30.3802
3357.0000;38.0072
3358.0000;46.9751
3359.0000;35.2701
3360.0000;28.1056
3361.0000;18.2822
3362.0000;44.6304
3363.0000;32.9276
3364.0000;29.5987
3365.0000;33.8935
3366.0000;29.0416
3367.0000;13.4920
3368.0000;13.6011
3369.0000;30.1163
3370.0000;15.0334
3371.0000;-0.2394
3372.0000;10.3518
3373.0000;19.1332
3374.0000;20.9216
3375.0000;22.4857
3376.0000;14.5427
3377.0000;18.8988
3378.0000;27.3997
3379.0000;23.4792
3380.0000;28.3773
3381.0000;26.7245
3382.0000;28.9326
3383.0000;-6.1277
3384.0000;12.4424
3385.0000;21.3520
3386.0000;16.2689
