Raman Shift ; Dark Subtracted #1
-2.0000;15938.7200
-1.0000;15397.3300
0.0000;14426.8400
1.0000;12902.9600
2.0000;10797.3400
3.0000;8266.6490
4.0000;5844.5420
5.0000;3749.7920
6.0000;2251.8210
7.0000;1543.1070
8.0000;1040.0560
9.0000;800.7258
10.0000;929.8677
11.0000;920.3394
12.0000;587.6799
13.0000;257.9941
14.0000;19.4809
15.0000;-59.0678
16.0000;-10.2564
17.0000;40.1010
18.0000;34.6154
19.0000;35.1135
20.0000;36.7675
21.0000;36.7283
22.0000;37.9416
23.0000;39.8899
24.0000;43.0551
25.0000;45.3907
26.0000;44.7809
27.0000;38.1637
28.0000;29.5201
29.0000;23.9421
30.0000;25.3640
31.0000;31.7428
32.0000;38.9941
33.0000;44.8381
34.0000;48.6233
35.0000;49.1653
36.0000;44.6803
37.0000;37.3625
38.0000;31.6895
39.0000;33.9211
40.0000;40.1747
41.0000;44.5271
42.0000;40.9584
43.0000;32.4300
44.0000;23.3100
45.0000;16.6196
46.0000;13.0076
47.0000;11.9759
48.0000;11.9815
49.0000;14.6592
50.0000;18.4449
51.0000;20.8364
52.0000;22.8967
53.0000;26.0209
54.0000;32.1833
55.0000;39.7456
56.0000;46.8896
57.0000;53.0183
58.0000;56.5947
59.0000;58.5978
60.0000;59.0725
61.0000;58.5411
62.0000;62.0575
63.0000;76.3435
64.0000;98.2082
65.0000;121.4301
66.0000;138.7433
67.0000;149.3600
68.0000;163.0908
69.0000;192.5231
70.0000;232.1774
71.0000;275.1608
72.0000;320.3024
73.0000;359.6922
74.0000;395.2363
75.0000;437.1479
76.0000;474.1692
77.0000;511.5499
78.0000;564.9321
79.0000;623.8885
80.0000;680.0979
81.0000;735.9822
82.0000;780.3127
83.0000;822.2173
84.0000;882.4125
85.0000;950.7182
86.0000;1017.2100
87.0000;1086.6930
88.0000;1146.2420
89.0000;1202.5270
90.0000;1275.3900
91.0000;1353.8910
92.0000;1430.2330
93.0000;1515.4540
94.0000;1595.3000
95.0000;1673.0170
96.0000;1768.7670
97.0000;1869.9090
98.0000;1965.0290
99.0000;2069.8320
100.0000;2169.7090
101.0000;2252.8960
102.0000;2347.3340
103.0000;2437.0170
104.0000;2518.3460
105.0000;2612.5390
106.0000;2707.4830
107.0000;2795.1240
108.0000;2901.8260
109.0000;3006.5320
110.0000;3099.4490
111.0000;3199.1930
112.0000;3292.3190
113.0000;3368.2810
114.0000;3458.3400
115.0000;3550.0670
116.0000;3635.5440
117.0000;3733.0290
118.0000;3831.9850
119.0000;3920.9950
120.0000;4013.5410
121.0000;4097.5530
122.0000;4166.7280
123.0000;4242.0540
124.0000;4314.0700
125.0000;4374.5650
126.0000;4439.7960
127.0000;4501.5040
128.0000;4555.5760
129.0000;4619.3830
130.0000;4686.2580
131.0000;4745.7750
132.0000;4804.1540
133.0000;4852.9280
134.0000;4894.2180
135.0000;4949.2720
136.0000;5013.5310
137.0000;5072.5180
138.0000;5126.2830
139.0000;5167.0970
140.0000;5194.8940
141.0000;5232.7020
142.0000;5277.2140
143.0000;5314.5610
144.0000;5352.7070
145.0000;5382.3110
146.0000;5404.3270
147.0000;5432.8070
148.0000;5461.9140
149.0000;5487.2660
150.0000;5514.3570
151.0000;5539.6070
152.0000;5555.9160
153.0000;5568.0270
154.0000;5571.7220
155.0000;5569.5100
156.0000;5571.7530
157.0000;5577.9360
158.0000;5584.5020
159.0000;5589.1540
160.0000;5591.3410
161.0000;5596.2230
162.0000;5610.9620
163.0000;5634.0310
164.0000;5660.1240
165.0000;5683.2540
166.0000;5700.6140
167.0000;5715.2290
168.0000;5738.6320
169.0000;5764.8660
170.0000;5787.5130
171.0000;5804.4720
172.0000;5811.4070
173.0000;5812.1040
174.0000;5815.9830
175.0000;5820.8910
176.0000;5827.2870
177.0000;5840.6200
178.0000;5857.7920
179.0000;5874.2740
180.0000;5884.5950
181.0000;5887.5540
182.0000;5891.1210
183.0000;5908.5890
184.0000;5935.2030
185.0000;5958.8090
186.0000;5971.6010
187.0000;5970.9940
188.0000;5969.5720
189.0000;5984.7350
190.0000;6009.3110
191.0000;6033.8960
192.0000;6052.1330
193.0000;6059.4790
194.0000;6059.6750
195.0000;6057.5210
196.0000;6050.6750
197.0000;6045.9940
198.0000;6052.3510
199.0000;6066.7040
200.0000;6080.9730
201.0000;6088.1110
202.0000;6088.8230
203.0000;6087.6350
204.0000;6090.3120
205.0000;6093.8240
206.0000;6097.4780
207.0000;6099.9190
208.0000;6102.3640
209.0000;6107.7300
210.0000;6119.1520
211.0000;6133.5190
212.0000;6149.3420
213.0000;6164.8790
214.0000;6177.8090
215.0000;6191.6000
216.0000;6211.7890
217.0000;6230.1980
218.0000;6245.5300
219.0000;6258.5330
220.0000;6266.6310
221.0000;6277.5880
222.0000;6299.3250
223.0000;6322.4240
224.0000;6342.0760
225.0000;6356.2530
226.0000;6361.8310
227.0000;6364.7790
228.0000;6366.8440
229.0000;6368.6240
230.0000;6378.4730
231.0000;6401.8540
232.0000;6429.9440
233.0000;6453.5110
234.0000;6465.3520
235.0000;6470.4070
236.0000;6480.9050
237.0000;6503.6610
238.0000;6526.2320
239.0000;6543.4610
240.0000;6550.3660
241.0000;6551.4620
242.0000;6557.8570
243.0000;6572.9230
244.0000;6588.9230
245.0000;6603.7650
246.0000;6614.8260
247.0000;6621.3140
248.0000;6627.0580
249.0000;6630.7570
250.0000;6631.1830
251.0000;6630.4020
252.0000;6627.9780
253.0000;6626.5410
254.0000;6629.9800
255.0000;6638.7060
256.0000;6649.7640
257.0000;6662.4190
258.0000;6674.1560
259.0000;6680.6050
260.0000;6676.9750
261.0000;6663.9070
262.0000;6652.8830
263.0000;6655.9220
264.0000;6673.6130
265.0000;6699.9950
266.0000;6733.0690
267.0000;6766.9280
268.0000;6792.5580
269.0000;6805.2600
270.0000;6800.3980
271.0000;6790.6190
272.0000;6790.5830
273.0000;6794.5660
274.0000;6801.8670
275.0000;6810.8190
276.0000;6822.7710
277.0000;6839.0000
278.0000;6862.5870
279.0000;6887.6520
280.0000;6911.6920
281.0000;6935.7660
282.0000;6952.6210
283.0000;6965.4360
284.0000;6977.0900
285.0000;6982.7390
286.0000;6989.2730
287.0000;7002.1490
288.0000;7013.3000
289.0000;7020.3540
290.0000;7019.5990
291.0000;7017.0020
292.0000;7023.6730
293.0000;7045.0890
294.0000;7068.7430
295.0000;7083.8640
296.0000;7083.9570
297.0000;7078.3510
298.0000;7080.3230
299.0000;7092.3810
300.0000;7108.7710
301.0000;7127.9890
302.0000;7146.4370
303.0000;7162.6070
304.0000;7178.4310
305.0000;7189.8620
306.0000;7196.1710
307.0000;7201.5680
308.0000;7203.0960
309.0000;7202.4360
310.0000;7203.1160
311.0000;7204.6780
312.0000;7209.3910
313.0000;7221.1010
314.0000;7237.6330
315.0000;7252.8820
316.0000;7261.6880
317.0000;7265.4790
318.0000;7272.8680
319.0000;7298.2950
320.0000;7327.1590
321.0000;7348.6830
322.0000;7353.1010
323.0000;7344.7490
324.0000;7339.9330
325.0000;7352.3040
326.0000;7371.1480
327.0000;7390.2330
328.0000;7405.4310
329.0000;7416.5870
330.0000;7428.8190
331.0000;7443.7870
332.0000;7456.3590
333.0000;7466.9670
334.0000;7474.5150
335.0000;7478.9730
336.0000;7485.2270
337.0000;7492.6880
338.0000;7501.9010
339.0000;7516.5450
340.0000;7536.1790
341.0000;7556.2750
342.0000;7577.0510
343.0000;7595.2950
344.0000;7611.3640
345.0000;7632.7170
346.0000;7654.3440
347.0000;7672.3800
348.0000;7692.6820
349.0000;7707.6550
350.0000;7714.2830
351.0000;7715.1780
352.0000;7706.7330
353.0000;7697.2170
354.0000;7692.1950
355.0000;7692.2720
356.0000;7699.3010
357.0000;7715.2790
358.0000;7736.8250
359.0000;7759.0490
360.0000;7782.4870
361.0000;7796.9800
362.0000;7799.8390
363.0000;7785.8320
364.0000;7764.1000
365.0000;7752.1260
366.0000;7760.0670
367.0000;7776.7250
368.0000;7788.8420
369.0000;7792.6340
370.0000;7792.8640
371.0000;7792.6080
372.0000;7791.7480
373.0000;7795.1990
374.0000;7811.6530
375.0000;7838.6590
376.0000;7864.8960
377.0000;7877.7200
378.0000;7875.7670
379.0000;7871.6900
380.0000;7880.7000
381.0000;7896.7940
382.0000;7915.0830
383.0000;7935.9750
384.0000;7952.8040
385.0000;7963.8000
386.0000;7968.6920
387.0000;7964.7100
388.0000;7959.7350
389.0000;7958.0560
390.0000;7959.9950
391.0000;7969.3130
392.0000;7989.8810
393.0000;8013.7580
394.0000;8034.6770
395.0000;8045.6780
396.0000;8052.5020
397.0000;8065.8340
398.0000;8087.8040
399.0000;8108.7890
400.0000;8124.9920
401.0000;8133.2880
402.0000;8138.4880
403.0000;8152.1140
404.0000;8170.5550
405.0000;8187.3370
406.0000;8203.4380
407.0000;8213.1930
408.0000;8217.5400
409.0000;8217.1660
410.0000;8212.2710
411.0000;8212.2260
412.0000;8228.7060
413.0000;8253.3140
414.0000;8274.3230
415.0000;8280.7980
416.0000;8280.1590
417.0000;8287.0730
418.0000;8312.3440
419.0000;8340.2400
420.0000;8357.1790
421.0000;8354.2670
422.0000;8343.0440
423.0000;8342.6830
424.0000;8357.5970
425.0000;8376.3800
426.0000;8389.1670
427.0000;8392.9190
428.0000;8394.3480
429.0000;8402.8440
430.0000;8415.5840
431.0000;8427.0020
432.0000;8436.3550
433.0000;8440.4570
434.0000;8440.8610
435.0000;8440.1800
436.0000;8437.0880
437.0000;8435.3940
438.0000;8437.0630
439.0000;8442.5220
440.0000;8452.6550
441.0000;8468.2690
442.0000;8485.7310
443.0000;8501.8600
444.0000;8515.7120
445.0000;8523.7030
446.0000;8528.5270
447.0000;8529.0050
448.0000;8525.6960
449.0000;8522.0580
450.0000;8518.7810
451.0000;8520.6310
452.0000;8532.7950
453.0000;8554.8910
454.0000;8579.8740
455.0000;8604.8930
456.0000;8625.3650
457.0000;8642.9500
458.0000;8662.9190
459.0000;8678.2140
460.0000;8692.6270
461.0000;8712.8660
462.0000;8731.4650
463.0000;8751.8180
464.0000;8775.6840
465.0000;8797.7190
466.0000;8821.5550
467.0000;8845.9380
468.0000;8868.1760
469.0000;8893.5990
470.0000;8920.8940
471.0000;8948.2920
472.0000;8983.1970
473.0000;9020.2250
474.0000;9057.7790
475.0000;9106.8750
476.0000;9154.0460
477.0000;9190.0470
478.0000;9219.4810
479.0000;9228.1120
480.0000;9224.4000
481.0000;9222.7900
482.0000;9212.7100
483.0000;9201.6520
484.0000;9197.0510
485.0000;9191.6740
486.0000;9177.9590
487.0000;9151.5730
488.0000;9124.6980
489.0000;9106.8070
490.0000;9104.2560
491.0000;9107.4330
492.0000;9099.0740
493.0000;9080.6700
494.0000;9064.5470
495.0000;9057.5460
496.0000;9062.2560
497.0000;9072.9720
498.0000;9081.2760
499.0000;9090.5210
500.0000;9102.2000
501.0000;9121.3340
502.0000;9139.1910
503.0000;9150.2750
504.0000;9150.2120
505.0000;9141.4780
506.0000;9134.5210
507.0000;9134.1120
508.0000;9137.0780
509.0000;9142.2030
510.0000;9149.3350
511.0000;9156.0660
512.0000;9158.7610
513.0000;9156.8460
514.0000;9156.4730
515.0000;9165.0460
516.0000;9180.1360
517.0000;9195.8720
518.0000;9208.3950
519.0000;9215.1330
520.0000;9217.3630
521.0000;9216.0070
522.0000;9211.1650
523.0000;9209.9520
524.0000;9218.0940
525.0000;9228.0390
526.0000;9232.2230
527.0000;9226.3370
528.0000;9221.3610
529.0000;9230.6740
530.0000;9255.0900
531.0000;9281.4650
532.0000;9298.5760
533.0000;9303.6280
534.0000;9304.6580
535.0000;9310.6760
536.0000;9318.1660
537.0000;9330.0000
538.0000;9349.0300
539.0000;9372.1790
540.0000;9401.5180
541.0000;9440.4270
542.0000;9476.2660
543.0000;9501.7540
544.0000;9511.4420
545.0000;9508.9790
546.0000;9511.2710
547.0000;9518.4060
548.0000;9524.2560
549.0000;9527.4680
550.0000;9527.4890
551.0000;9529.6190
552.0000;9539.6810
553.0000;9555.4990
554.0000;9572.4000
555.0000;9589.3170
556.0000;9603.7260
557.0000;9617.1560
558.0000;9631.5130
559.0000;9642.7850
560.0000;9653.9840
561.0000;9665.2080
562.0000;9673.9380
563.0000;9684.1130
564.0000;9694.0440
565.0000;9698.6610
566.0000;9695.6600
567.0000;9684.2560
568.0000;9673.4000
569.0000;9670.7990
570.0000;9675.7230
571.0000;9683.6040
572.0000;9691.6330
573.0000;9699.2340
574.0000;9705.1790
575.0000;9709.3210
576.0000;9708.6200
577.0000;9702.4450
578.0000;9690.1300
579.0000;9678.5730
580.0000;9676.8280
581.0000;9686.5260
582.0000;9700.1160
583.0000;9705.7820
584.0000;9706.4790
585.0000;9711.1530
586.0000;9732.0830
587.0000;9757.9310
588.0000;9778.0980
589.0000;9782.1950
590.0000;9775.8940
591.0000;9774.1390
592.0000;9783.9120
593.0000;9796.2050
594.0000;9808.0160
595.0000;9816.3590
596.0000;9820.3330
597.0000;9820.0900
598.0000;9814.4360
599.0000;9808.7490
600.0000;9810.1880
601.0000;9815.7160
602.0000;9819.5770
603.0000;9814.9380
604.0000;9807.6820
605.0000;9804.1280
606.0000;9808.4200
607.0000;9817.5540
608.0000;9826.1070
609.0000;9832.1510
610.0000;9840.4240
611.0000;9854.6220
612.0000;9874.5520
613.0000;9898.8990
614.0000;9932.0940
615.0000;9967.0740
616.0000;9999.7050
617.0000;10033.5000
618.0000;10059.6700
619.0000;10087.4700
620.0000;10125.1700
621.0000;10158.3800
622.0000;10192.7100
623.0000;10223.5700
624.0000;10246.8800
625.0000;10273.5500
626.0000;10297.5300
627.0000;10320.4300
628.0000;10355.9200
629.0000;10393.7700
630.0000;10429.0500
631.0000;10472.1800
632.0000;10504.2800
633.0000;10525.3200
634.0000;10536.8500
635.0000;10531.5000
636.0000;10522.1600
637.0000;10513.5400
638.0000;10495.8700
639.0000;10464.8100
640.0000;10423.2500
641.0000;10384.5900
642.0000;10353.7600
643.0000;10338.7200
644.0000;10328.7300
645.0000;10303.8600
646.0000;10282.7700
647.0000;10272.5400
648.0000;10280.5700
649.0000;10296.2700
650.0000;10296.7300
651.0000;10272.6200
652.0000;10245.2500
653.0000;10234.1800
654.0000;10243.6500
655.0000;10260.0200
656.0000;10268.7500
657.0000;10273.0900
658.0000;10279.0000
659.0000;10293.2400
660.0000;10308.5500
661.0000;10321.0300
662.0000;10329.4100
663.0000;10331.1600
664.0000;10330.7400
665.0000;10328.2700
666.0000;10320.9400
667.0000;10307.8400
668.0000;10291.3400
669.0000;10277.3600
670.0000;10269.4600
671.0000;10271.5300
672.0000;10280.8000
673.0000;10296.0200
674.0000;10313.5300
675.0000;10324.4000
676.0000;10322.1000
677.0000;10314.9400
678.0000;10316.4300
679.0000;10328.3800
680.0000;10340.8600
681.0000;10345.7500
682.0000;10343.2400
683.0000;10343.0200
684.0000;10354.2600
685.0000;10372.5100
686.0000;10393.7700
687.0000;10418.3400
688.0000;10436.6900
689.0000;10443.3100
690.0000;10432.6400
691.0000;10416.8100
692.0000;10414.1600
693.0000;10426.7200
694.0000;10446.5200
695.0000;10467.5300
696.0000;10487.8900
697.0000;10505.9700
698.0000;10521.3700
699.0000;10531.5100
700.0000;10545.1400
701.0000;10566.3800
702.0000;10586.7100
703.0000;10606.7700
704.0000;10621.4900
705.0000;10629.2300
706.0000;10632.0900
707.0000;10628.4600
708.0000;10628.2800
709.0000;10645.2000
710.0000;10668.9700
711.0000;10688.0500
712.0000;10693.5900
713.0000;10691.5500
714.0000;10695.5800
715.0000;10708.6800
716.0000;10721.5300
717.0000;10728.9600
718.0000;10729.1100
719.0000;10727.4200
720.0000;10727.6800
721.0000;10731.1900
722.0000;10744.3300
723.0000;10774.7600
724.0000;10807.9100
725.0000;10828.7200
726.0000;10827.1600
727.0000;10815.0500
728.0000;10812.9500
729.0000;10821.2300
730.0000;10835.0600
731.0000;10856.5400
732.0000;10878.9800
733.0000;10891.5500
734.0000;10884.8900
735.0000;10864.8600
736.0000;10848.4300
737.0000;10844.4400
738.0000;10847.3300
739.0000;10850.7300
740.0000;10854.7500
741.0000;10860.3300
742.0000;10863.2900
743.0000;10866.4600
744.0000;10877.0000
745.0000;10909.8100
746.0000;10943.9800
747.0000;10960.7100
748.0000;10945.5900
749.0000;10915.1000
750.0000;10894.2900
751.0000;10889.2100
752.0000;10890.7100
753.0000;10886.0400
754.0000;10882.2500
755.0000;10888.2000
756.0000;10914.7800
757.0000;10947.6900
758.0000;10966.8300
759.0000;10956.5100
760.0000;10933.6400
761.0000;10922.4000
762.0000;10928.9600
763.0000;10941.2400
764.0000;10948.1300
765.0000;10951.4900
766.0000;10957.8000
767.0000;10974.8000
768.0000;10993.2600
769.0000;11005.9000
770.0000;11006.2600
771.0000;10999.7300
772.0000;10997.6100
773.0000;11001.2200
774.0000;11007.6000
775.0000;11015.2200
776.0000;11023.7500
777.0000;11032.0000
778.0000;11044.1400
779.0000;11051.8600
780.0000;11050.7200
781.0000;11034.8300
782.0000;11017.8200
783.0000;11015.2000
784.0000;11031.5400
785.0000;11057.7600
786.0000;11083.5600
787.0000;11107.4800
788.0000;11126.4000
789.0000;11141.1900
790.0000;11148.2000
791.0000;11159.5100
792.0000;11178.6800
793.0000;11197.8600
794.0000;11216.2200
795.0000;11230.1600
796.0000;11235.8000
797.0000;11231.6100
798.0000;11219.8800
799.0000;11218.1400
800.0000;11242.4500
801.0000;11276.6700
802.0000;11305.6900
803.0000;11318.8900
804.0000;11321.4300
805.0000;11323.3600
806.0000;11322.0600
807.0000;11320.0100
808.0000;11323.9400
809.0000;11330.5000
810.0000;11336.0100
811.0000;11337.3100
812.0000;11337.6700
813.0000;11342.1900
814.0000;11352.2700
815.0000;11363.1600
816.0000;11372.9600
817.0000;11379.2500
818.0000;11380.4400
819.0000;11373.6300
820.0000;11363.9700
821.0000;11364.4000
822.0000;11381.6300
823.0000;11408.6400
824.0000;11436.4800
825.0000;11459.6000
826.0000;11478.2300
827.0000;11498.7200
828.0000;11510.3700
829.0000;11510.3300
830.0000;11493.8700
831.0000;11470.6600
832.0000;11464.2000
833.0000;11486.5100
834.0000;11514.7500
835.0000;11522.3800
836.0000;11508.1700
837.0000;11490.8400
838.0000;11491.7400
839.0000;11501.3500
840.0000;11505.3700
841.0000;11492.7100
842.0000;11477.0500
843.0000;11472.4200
844.0000;11483.1800
845.0000;11499.9200
846.0000;11511.6000
847.0000;11517.8900
848.0000;11522.2200
849.0000;11528.8600
850.0000;11533.3300
851.0000;11535.7900
852.0000;11535.2900
853.0000;11534.9300
854.0000;11542.3200
855.0000;11555.5900
856.0000;11564.5000
857.0000;11554.2900
858.0000;11535.0600
859.0000;11530.4100
860.0000;11559.0200
861.0000;11599.0800
862.0000;11624.3600
863.0000;11624.9200
864.0000;11617.6700
865.0000;11623.2400
866.0000;11636.9400
867.0000;11653.1200
868.0000;11671.5900
869.0000;11686.6400
870.0000;11696.0000
871.0000;11695.8400
872.0000;11694.3800
873.0000;11707.8300
874.0000;11733.4900
875.0000;11756.2800
876.0000;11763.1000
877.0000;11758.7900
878.0000;11760.9900
879.0000;11782.0600
880.0000;11807.9000
881.0000;11830.6300
882.0000;11844.6900
883.0000;11848.1400
884.0000;11839.1700
885.0000;11821.4300
886.0000;11816.7400
887.0000;11845.4200
888.0000;11888.6900
889.0000;11921.6600
890.0000;11931.4000
891.0000;11934.4700
892.0000;11954.6800
893.0000;11984.4200
894.0000;12012.4000
895.0000;12038.0900
896.0000;12051.6700
897.0000;12056.2300
898.0000;12050.0400
899.0000;12039.4800
900.0000;12040.1400
901.0000;12053.0500
902.0000;12070.6800
903.0000;12086.6900
904.0000;12101.7200
905.0000;12118.7500
906.0000;12139.7800
907.0000;12158.9200
908.0000;12177.8200
909.0000;12192.7000
910.0000;12204.2200
911.0000;12217.9900
912.0000;12230.3900
913.0000;12246.5600
914.0000;12275.0300
915.0000;12299.9600
916.0000;12311.3800
917.0000;12302.6000
918.0000;12289.4600
919.0000;12297.0800
920.0000;12318.3300
921.0000;12336.7500
922.0000;12337.6000
923.0000;12331.4600
924.0000;12336.6600
925.0000;12359.0500
926.0000;12384.1200
927.0000;12400.9600
928.0000;12406.4800
929.0000;12408.4000
930.0000;12417.1300
931.0000;12425.1200
932.0000;12433.5300
933.0000;12441.4400
934.0000;12447.3300
935.0000;12454.4400
936.0000;12459.6400
937.0000;12459.9500
938.0000;12448.8300
939.0000;12435.8300
940.0000;12439.9100
941.0000;12471.8000
942.0000;12513.0100
943.0000;12540.4700
944.0000;12548.5600
945.0000;12547.3300
946.0000;12547.7800
947.0000;12547.3000
948.0000;12557.6000
949.0000;12586.8000
950.0000;12617.3300
951.0000;12632.9800
952.0000;12627.1700
953.0000;12616.7500
954.0000;12620.8100
955.0000;12632.4300
956.0000;12646.4100
957.0000;12658.2900
958.0000;12669.9400
959.0000;12685.8800
960.0000;12703.0500
961.0000;12718.5800
962.0000;12732.5800
963.0000;12741.4100
964.0000;12750.3000
965.0000;12762.1900
966.0000;12772.7300
967.0000;12783.7600
968.0000;12793.7300
969.0000;12801.1200
970.0000;12803.3200
971.0000;12805.4200
972.0000;12825.0700
973.0000;12874.4600
974.0000;12931.1900
975.0000;12978.0200
976.0000;13000.1300
977.0000;13004.0800
978.0000;13003.4300
979.0000;12992.7100
980.0000;12989.5500
981.0000;13007.3000
982.0000;13032.2400
983.0000;13048.8300
984.0000;13053.2200
985.0000;13057.7500
986.0000;13079.0800
987.0000;13106.6000
988.0000;13132.2600
989.0000;13148.7800
990.0000;13157.4500
991.0000;13168.9500
992.0000;13180.9200
993.0000;13190.1700
994.0000;13198.6800
995.0000;13203.3800
996.0000;13207.4300
997.0000;13211.1100
998.0000;13217.9500
999.0000;13235.1300
1000.0000;13262.7200
1001.0000;13292.1000
1002.0000;13321.6300
1003.0000;13343.0100
1004.0000;13355.6600
1005.0000;13359.7000
1006.0000;13350.4700
1007.0000;13333.8700
1008.0000;13312.0800
1009.0000;13294.6000
1010.0000;13288.5800
1011.0000;13297.9000
1012.0000;13318.2300
1013.0000;13348.1600
1014.0000;13376.8700
1015.0000;13392.4000
1016.0000;13389.8000
1017.0000;13387.4700
1018.0000;13410.2700
1019.0000;13438.4800
1020.0000;13451.6100
1021.0000;13436.9300
1022.0000;13418.2600
1023.0000;13424.9400
1024.0000;13455.1600
1025.0000;13485.1600
1026.0000;13495.3600
1027.0000;13494.8500
1028.0000;13500.3800
1029.0000;13516.6600
1030.0000;13536.3900
1031.0000;13560.8300
1032.0000;13583.8500
1033.0000;13596.4700
1034.0000;13591.9200
1035.0000;13577.5000
1036.0000;13575.8000
1037.0000;13593.0400
1038.0000;13611.8900
1039.0000;13614.9400
1040.0000;13606.8500
1041.0000;13605.8300
1042.0000;13626.7600
1043.0000;13650.4300
1044.0000;13659.8700
1045.0000;13648.6300
1046.0000;13634.6300
1047.0000;13637.9500
1048.0000;13651.0800
1049.0000;13661.2100
1050.0000;13659.1500
1051.0000;13658.1700
1052.0000;13672.9000
1053.0000;13703.0200
1054.0000;13733.2700
1055.0000;13753.1700
1056.0000;13761.8800
1057.0000;13771.0700
1058.0000;13783.4800
1059.0000;13796.7200
1060.0000;13819.5900
1061.0000;13845.3500
1062.0000;13863.0700
1063.0000;13863.2000
1064.0000;13854.8000
1065.0000;13860.9700
1066.0000;13887.7600
1067.0000;13925.0000
1068.0000;13969.1200
1069.0000;14011.0500
1070.0000;14046.5500
1071.0000;14076.3200
1072.0000;14086.5800
1073.0000;14081.2400
1074.0000;14058.2200
1075.0000;14041.7300
1076.0000;14061.1400
1077.0000;14103.9900
1078.0000;14145.5100
1079.0000;14171.9600
1080.0000;14184.5000
1081.0000;14189.8900
1082.0000;14184.4700
1083.0000;14181.8300
1084.0000;14197.9400
1085.0000;14221.7100
1086.0000;14244.3300
1087.0000;14260.3100
1088.0000;14272.0900
1089.0000;14288.3300
1090.0000;14301.9400
1091.0000;14311.3600
1092.0000;14316.7600
1093.0000;14315.4700
1094.0000;14309.6900
1095.0000;14300.5900
1096.0000;14302.2000
1097.0000;14333.3700
1098.0000;14378.3000
1099.0000;14411.2900
1100.0000;14415.3900
1101.0000;14410.0600
1102.0000;14427.7400
1103.0000;14462.0200
1104.0000;14487.7800
1105.0000;14495.8800
1106.0000;14483.1300
1107.0000;14456.2700
1108.0000;14418.9200
1109.0000;14390.4500
1110.0000;14390.4700
1111.0000;14419.0600
1112.0000;14449.2100
1113.0000;14464.8600
1114.0000;14475.4900
1115.0000;14492.8100
1116.0000;14511.5400
1117.0000;14523.6100
1118.0000;14525.0100
1119.0000;14517.6900
1120.0000;14518.5000
1121.0000;14533.3100
1122.0000;14548.7100
1123.0000;14552.6800
1124.0000;14546.1600
1125.0000;14539.9100
1126.0000;14545.3600
1127.0000;14547.7600
1128.0000;14529.4800
1129.0000;14491.9900
1130.0000;14463.3000
1131.0000;14466.5200
1132.0000;14495.1300
1133.0000;14523.8100
1134.0000;14541.5700
1135.0000;14549.4700
1136.0000;14549.3400
1137.0000;14539.0300
1138.0000;14529.2700
1139.0000;14533.3200
1140.0000;14536.5800
1141.0000;14520.2200
1142.0000;14484.3900
1143.0000;14456.5700
1144.0000;14463.7000
1145.0000;14494.1500
1146.0000;14515.7500
1147.0000;14510.3000
1148.0000;14498.5100
1149.0000;14502.7100
1150.0000;14518.6300
1151.0000;14530.6200
1152.0000;14526.2400
1153.0000;14518.5300
1154.0000;14527.2300
1155.0000;14553.6300
1156.0000;14575.9100
1157.0000;14571.9600
1158.0000;14551.7000
1159.0000;14541.8600
1160.0000;14554.7500
1161.0000;14572.9100
1162.0000;14578.1700
1163.0000;14573.9900
1164.0000;14578.6700
1165.0000;14607.7300
1166.0000;14641.3500
1167.0000;14657.4300
1168.0000;14649.5200
1169.0000;14637.3200
1170.0000;14645.4700
1171.0000;14660.0400
1172.0000;14666.1600
1173.0000;14657.0800
1174.0000;14647.5300
1175.0000;14654.3100
1176.0000;14673.9100
1177.0000;14692.0400
1178.0000;14696.4700
1179.0000;14701.0000
1180.0000;14725.7100
1181.0000;14766.0900
1182.0000;14802.6000
1183.0000;14821.4200
1184.0000;14821.9700
1185.0000;14822.5500
1186.0000;14826.1800
1187.0000;14832.6100
1188.0000;14850.3100
1189.0000;14873.3600
1190.0000;14893.2900
1191.0000;14904.5800
1192.0000;14912.9800
1193.0000;14934.5700
1194.0000;14963.7000
1195.0000;14984.7600
1196.0000;14989.1800
1197.0000;14980.3500
1198.0000;14975.3400
1199.0000;14977.0700
1200.0000;14979.8200
1201.0000;14980.6600
1202.0000;14981.2200
1203.0000;14982.8600
1204.0000;14985.4800
1205.0000;14992.7000
1206.0000;15010.3800
1207.0000;15033.5800
1208.0000;15049.6100
1209.0000;15049.3300
1210.0000;15040.9000
1211.0000;15041.5000
1212.0000;15050.7900
1213.0000;15060.1400
1214.0000;15061.9300
1215.0000;15062.2100
1216.0000;15070.5400
1217.0000;15087.8400
1218.0000;15107.9600
1219.0000;15128.2800
1220.0000;15142.7700
1221.0000;15150.6500
1222.0000;15149.1100
1223.0000;15145.7000
1224.0000;15156.5800
1225.0000;15176.2900
1226.0000;15191.3100
1227.0000;15190.9100
1228.0000;15189.0600
1229.0000;15211.1800
1230.0000;15253.3000
1231.0000;15282.9100
1232.0000;15270.8800
1233.0000;15239.8600
1234.0000;15235.7800
1235.0000;15269.9900
1236.0000;15306.6200
1237.0000;15314.9700
1238.0000;15302.9500
1239.0000;15293.2700
1240.0000;15294.6900
1241.0000;15300.9000
1242.0000;15312.0200
1243.0000;15324.5200
1244.0000;15330.1100
1245.0000;15323.0100
1246.0000;15309.5400
1247.0000;15301.0400
1248.0000;15298.2100
1249.0000;15294.4700
1250.0000;15280.0100
1251.0000;15270.3800
1252.0000;15279.9800
1253.0000;15311.5700
1254.0000;15343.2100
1255.0000;15352.5900
1256.0000;15348.5000
1257.0000;15355.4500
1258.0000;15379.2500
1259.0000;15403.7300
1260.0000;15418.3800
1261.0000;15423.2800
1262.0000;15432.7100
1263.0000;15453.8200
1264.0000;15471.0600
1265.0000;15473.4500
1266.0000;15461.8800
1267.0000;15454.0600
1268.0000;15462.9700
1269.0000;15476.4000
1270.0000;15483.9800
1271.0000;15483.2900
1272.0000;15477.3100
1273.0000;15461.6900
1274.0000;15452.8800
1275.0000;15474.2600
1276.0000;15530.2500
1277.0000;15581.8400
1278.0000;15601.4400
1279.0000;15594.5900
1280.0000;15589.5100
1281.0000;15592.4700
1282.0000;15600.3900
1283.0000;15623.6000
1284.0000;15649.7500
1285.0000;15656.1100
1286.0000;15630.6900
1287.0000;15605.4700
1288.0000;15620.0000
1289.0000;15663.8300
1290.0000;15702.9900
1291.0000;15717.0300
1292.0000;15718.2400
1293.0000;15725.9000
1294.0000;15735.4100
1295.0000;15745.8400
1296.0000;15756.7000
1297.0000;15769.0200
1298.0000;15790.4300
1299.0000;15816.3100
1300.0000;15840.1200
1301.0000;15864.1100
1302.0000;15874.6100
1303.0000;15870.6600
1304.0000;15850.3000
1305.0000;15831.8500
1306.0000;15833.9800
1307.0000;15850.4900
1308.0000;15868.5300
1309.0000;15884.1100
1310.0000;15899.7100
1311.0000;15920.3000
1312.0000;15938.4300
1313.0000;15957.2300
1314.0000;15974.0000
1315.0000;15982.7400
1316.0000;15981.1300
1317.0000;15972.0900
1318.0000;15975.5000
1319.0000;16001.2800
1320.0000;16033.2300
1321.0000;16055.9100
1322.0000;16066.6100
1323.0000;16072.9200
1324.0000;16078.4700
1325.0000;16081.9700
1326.0000;16093.5500
1327.0000;16108.5300
1328.0000;16120.6600
1329.0000;16126.1000
1330.0000;16124.3300
1331.0000;16118.7600
1332.0000;16110.4400
1333.0000;16108.9500
1334.0000;16120.7300
1335.0000;16142.4000
1336.0000;16170.1900
1337.0000;16199.0700
1338.0000;16213.5800
1339.0000;16203.2700
1340.0000;16178.7400
1341.0000;16165.7800
1342.0000;16171.7700
1343.0000;16189.4000
1344.0000;16218.5500
1345.0000;16247.4300
1346.0000;16261.3800
1347.0000;16251.7500
1348.0000;16236.0000
1349.0000;16233.4500
1350.0000;16236.9500
1351.0000;16241.8100
1352.0000;16246.9400
1353.0000;16244.8700
1354.0000;16226.2200
1355.0000;16199.7000
1356.0000;16181.5600
1357.0000;16179.7400
1358.0000;16191.8200
1359.0000;16214.1100
1360.0000;16241.2400
1361.0000;16256.1400
1362.0000;16249.8800
1363.0000;16239.5200
1364.0000;16243.0800
1365.0000;16260.2300
1366.0000;16294.3900
1367.0000;16347.3900
1368.0000;16388.2400
1369.0000;16391.5000
1370.0000;16360.6700
1371.0000;16343.6700
1372.0000;16365.0000
1373.0000;16393.0400
1374.0000;16401.2300
1375.0000;16393.8700
1376.0000;16392.9200
1377.0000;16408.8800
1378.0000;16428.7400
1379.0000;16445.0300
1380.0000;16455.2500
1381.0000;16466.1400
1382.0000;16481.2600
1383.0000;16491.5600
1384.0000;16494.5600
1385.0000;16489.4500
1386.0000;16486.6900
1387.0000;16492.8700
1388.0000;16502.6300
1389.0000;16509.8400
1390.0000;16516.5300
1391.0000;16532.7200
1392.0000;16564.5800
1393.0000;16596.1500
1394.0000;16618.6600
1395.0000;16625.9300
1396.0000;16630.4400
1397.0000;16638.9200
1398.0000;16649.9200
1399.0000;16672.9100
1400.0000;16702.5500
1401.0000;16730.8800
1402.0000;16754.1800
1403.0000;16765.4600
1404.0000;16768.8200
1405.0000;16761.1000
1406.0000;16754.5500
1407.0000;16757.6900
1408.0000;16766.5400
1409.0000;16777.9300
1410.0000;16791.9500
1411.0000;16811.6000
1412.0000;16839.9500
1413.0000;16862.6900
1414.0000;16870.7000
1415.0000;16861.4100
1416.0000;16853.1100
1417.0000;16857.8300
1418.0000;16868.0800
1419.0000;16881.3200
1420.0000;16894.6900
1421.0000;16901.6300
1422.0000;16896.8000
1423.0000;16891.4300
1424.0000;16904.4300
1425.0000;16929.7100
1426.0000;16947.0000
1427.0000;16942.0500
1428.0000;16933.5800
1429.0000;16949.3200
1430.0000;16980.4900
1431.0000;17004.1400
1432.0000;17006.0500
1433.0000;17000.9800
1434.0000;17014.9800
1435.0000;17036.7900
1436.0000;17042.6200
1437.0000;17017.2000
1438.0000;16990.7400
1439.0000;16997.1300
1440.0000;17031.0100
1441.0000;17067.5200
1442.0000;17092.1900
1443.0000;17101.0500
1444.0000;17086.1600
1445.0000;17056.0000
1446.0000;17054.3800
1447.0000;17101.9200
1448.0000;17154.3900
1449.0000;17172.4200
1450.0000;17154.7200
1451.0000;17123.4000
1452.0000;17085.7300
1453.0000;17056.7200
1454.0000;17051.1000
1455.0000;17074.4500
1456.0000;17117.9100
1457.0000;17174.3000
1458.0000;17215.2000
1459.0000;17214.5500
1460.0000;17177.5700
1461.0000;17145.1800
1462.0000;17130.8000
1463.0000;17128.2800
1464.0000;17129.1000
1465.0000;17141.9600
1466.0000;17164.5600
1467.0000;17194.3700
1468.0000;17215.8000
1469.0000;17212.8200
1470.0000;17196.0100
1471.0000;17196.4100
1472.0000;17217.8300
1473.0000;17233.5400
1474.0000;17221.9700
1475.0000;17196.9500
1476.0000;17178.4100
1477.0000;17172.2400
1478.0000;17182.5800
1479.0000;17218.1000
1480.0000;17254.3800
1481.0000;17250.9900
1482.0000;17207.0700
1483.0000;17172.9900
1484.0000;17183.5200
1485.0000;17211.5800
1486.0000;17225.2100
1487.0000;17223.5900
1488.0000;17217.4900
1489.0000;17209.2900
1490.0000;17209.1100
1491.0000;17233.2500
1492.0000;17275.3600
1493.0000;17308.3900
1494.0000;17317.4500
1495.0000;17317.9000
1496.0000;17334.7200
1497.0000;17358.8200
1498.0000;17388.5500
1499.0000;17420.4600
1500.0000;17441.4400
1501.0000;17451.4200
1502.0000;17443.0200
1503.0000;17426.6100
1504.0000;17405.9100
1505.0000;17393.9100
1506.0000;17404.7600
1507.0000;17429.4900
1508.0000;17444.8700
1509.0000;17443.8900
1510.0000;17445.9600
1511.0000;17468.6600
1512.0000;17498.1100
1513.0000;17522.7500
1514.0000;17538.2900
1515.0000;17553.4500
1516.0000;17579.0300
1517.0000;17598.8900
1518.0000;17604.2700
1519.0000;17594.5100
1520.0000;17592.4500
1521.0000;17615.2900
1522.0000;17643.8300
1523.0000;17657.2900
1524.0000;17660.2600
1525.0000;17680.1500
1526.0000;17730.1500
1527.0000;17777.4200
1528.0000;17800.6200
1529.0000;17798.9600
1530.0000;17807.9700
1531.0000;17836.6000
1532.0000;17858.7700
1533.0000;17853.0200
1534.0000;17833.6900
1535.0000;17841.6000
1536.0000;17881.8900
1537.0000;17912.8600
1538.0000;17897.3100
1539.0000;17858.0000
1540.0000;17832.7000
1541.0000;17830.2400
1542.0000;17844.7600
1543.0000;17877.7500
1544.0000;17911.9300
1545.0000;17920.5200
1546.0000;17901.0000
1547.0000;17878.7600
1548.0000;17866.8400
1549.0000;17867.9700
1550.0000;17887.4800
1551.0000;17920.7200
1552.0000;17951.4400
1553.0000;17967.8400
1554.0000;17977.4000
1555.0000;17995.9100
1556.0000;18010.6400
1557.0000;18018.0900
1558.0000;18015.3300
1559.0000;18014.9100
1560.0000;18035.0100
1561.0000;18057.6100
1562.0000;18065.1100
1563.0000;18053.5700
1564.0000;18039.8500
1565.0000;18037.6600
1566.0000;18037.4300
1567.0000;18032.6600
1568.0000;18022.7900
1569.0000;18004.2300
1570.0000;17974.8500
1571.0000;17948.4900
1572.0000;17934.0100
1573.0000;17934.6400
1574.0000;17933.8200
1575.0000;17927.0700
1576.0000;17930.5800
1577.0000;17955.4200
1578.0000;17990.5100
1579.0000;18018.0100
1580.0000;18028.0300
1581.0000;18029.4400
1582.0000;18030.8700
1583.0000;18028.1700
1584.0000;18029.9000
1585.0000;18034.6000
1586.0000;18036.6400
1587.0000;18032.5200
1588.0000;18027.9100
1589.0000;18032.1600
1590.0000;18040.0800
1591.0000;18038.1500
1592.0000;18020.6900
1593.0000;18007.2800
1594.0000;18015.0800
1595.0000;18038.2500
1596.0000;18064.2400
1597.0000;18086.5500
1598.0000;18096.0600
1599.0000;18084.0600
1600.0000;18062.4200
1601.0000;18054.0000
1602.0000;18062.9400
1603.0000;18086.2900
1604.0000;18121.2800
1605.0000;18157.8700
1606.0000;18190.6800
1607.0000;18207.0000
1608.0000;18205.2800
1609.0000;18183.0600
1610.0000;18155.6900
1611.0000;18144.2300
1612.0000;18146.5600
1613.0000;18156.8700
1614.0000;18174.2600
1615.0000;18184.9700
1616.0000;18177.1300
1617.0000;18161.7700
1618.0000;18154.6000
1619.0000;18158.3200
1620.0000;18174.0800
1621.0000;18201.7900
1622.0000;18231.4600
1623.0000;18251.2900
1624.0000;18259.4700
1625.0000;18269.5500
1626.0000;18281.3500
1627.0000;18289.0400
1628.0000;18294.1600
1629.0000;18293.4400
1630.0000;18291.8500
1631.0000;18289.4900
1632.0000;18288.2100
1633.0000;18288.3500
1634.0000;18295.1500
1635.0000;18317.9300
1636.0000;18346.0700
1637.0000;18359.7800
1638.0000;18348.1100
1639.0000;18330.8600
1640.0000;18333.7300
1641.0000;18343.1500
1642.0000;18341.1300
1643.0000;18327.5800
1644.0000;18322.6200
1645.0000;18337.7200
1646.0000;18364.8700
1647.0000;18398.9200
1648.0000;18428.8600
1649.0000;18444.1300
1650.0000;18434.9900
1651.0000;18418.6000
1652.0000;18423.7600
1653.0000;18432.8100
1654.0000;18423.7800
1655.0000;18394.6100
1656.0000;18364.3800
1657.0000;18345.4700
1658.0000;18342.2300
1659.0000;18350.9800
1660.0000;18372.1400
1661.0000;18389.8500
1662.0000;18396.2500
1663.0000;18391.8800
1664.0000;18379.9700
1665.0000;18361.4400
1666.0000;18345.4100
1667.0000;18335.8100
1668.0000;18331.2900
1669.0000;18329.9400
1670.0000;18331.3500
1671.0000;18325.4600
1672.0000;18316.5900
1673.0000;18316.4600
1674.0000;18331.2900
1675.0000;18342.8400
1676.0000;18332.2400
1677.0000;18308.6900
1678.0000;18291.9300
1679.0000;18288.0300
1680.0000;18288.7300
1681.0000;18286.7000
1682.0000;18288.7100
1683.0000;18297.6100
1684.0000;18309.1000
1685.0000;18311.9000
1686.0000;18299.5300
1687.0000;18284.1500
1688.0000;18279.0500
1689.0000;18279.9700
1690.0000;18277.2500
1691.0000;18271.1400
1692.0000;18267.7600
1693.0000;18270.2500
1694.0000;18275.4600
1695.0000;18280.1700
1696.0000;18281.3500
1697.0000;18274.0700
1698.0000;18256.4700
1699.0000;18236.8000
1700.0000;18222.8000
1701.0000;18213.5900
1702.0000;18198.1800
1703.0000;18181.4600
1704.0000;18172.9300
1705.0000;18178.3100
1706.0000;18186.4800
1707.0000;18178.8600
1708.0000;18161.4100
1709.0000;18145.4400
1710.0000;18135.9100
1711.0000;18129.7600
1712.0000;18120.2500
1713.0000;18118.0900
1714.0000;18127.0000
1715.0000;18146.5200
1716.0000;18167.7800
1717.0000;18185.8000
1718.0000;18189.3300
1719.0000;18165.6500
1720.0000;18132.3800
1721.0000;18130.6500
1722.0000;18166.2200
1723.0000;18196.0400
1724.0000;18188.9400
1725.0000;18170.5200
1726.0000;18169.0600
1727.0000;18182.6600
1728.0000;18204.6400
1729.0000;18231.7900
1730.0000;18252.6100
1731.0000;18262.2400
1732.0000;18254.8200
1733.0000;18233.8800
1734.0000;18205.8500
1735.0000;18198.6300
1736.0000;18229.5700
1737.0000;18266.8700
1738.0000;18277.7300
1739.0000;18263.4800
1740.0000;18232.2100
1741.0000;18189.4400
1742.0000;18161.3200
1743.0000;18167.6100
1744.0000;18194.9500
1745.0000;18218.1400
1746.0000;18235.1400
1747.0000;18240.7900
1748.0000;18230.3700
1749.0000;18218.0300
1750.0000;18218.4500
1751.0000;18224.0100
1752.0000;18227.2600
1753.0000;18227.8800
1754.0000;18217.2500
1755.0000;18186.9400
1756.0000;18219.9900
1757.0000;18441.8000
1758.0000;18675.4100
1759.0000;18671.6100
1760.0000;18400.1000
1761.0000;18176.8900
1762.0000;18182.0600
1763.0000;18279.2300
1764.0000;18307.2900
1765.0000;18309.4000
1766.0000;18305.7400
1767.0000;18297.6500
1768.0000;18294.3100
1769.0000;18309.0500
1770.0000;18322.5700
1771.0000;18313.5400
1772.0000;18289.4800
1773.0000;18274.3300
1774.0000;18277.2600
1775.0000;18286.2000
1776.0000;18298.5400
1777.0000;18297.3900
1778.0000;18253.1500
1779.0000;18180.7700
1780.0000;18141.2500
1781.0000;18162.6000
1782.0000;18197.8000
1783.0000;18190.8800
1784.0000;18174.3400
1785.0000;18184.2900
1786.0000;18213.5500
1787.0000;18213.3900
1788.0000;18158.6300
1789.0000;18098.2100
1790.0000;18073.3700
1791.0000;18079.1600
1792.0000;18084.4300
1793.0000;18087.7600
1794.0000;18084.6800
1795.0000;18068.2700
1796.0000;18052.2700
1797.0000;18052.5400
1798.0000;18058.3200
1799.0000;18039.3900
1800.0000;17997.4700
1801.0000;17972.6700
1802.0000;17997.0600
1803.0000;18027.6100
1804.0000;18006.4700
1805.0000;17959.9200
1806.0000;17942.0000
1807.0000;17968.8400
1808.0000;18000.3900
1809.0000;18014.7000
1810.0000;18008.6800
1811.0000;17977.4600
1812.0000;17929.4500
1813.0000;17897.8900
1814.0000;17895.7200
1815.0000;17902.6000
1816.0000;17899.1100
1817.0000;17894.5900
1818.0000;17885.5200
1819.0000;17876.1100
1820.0000;17873.5100
1821.0000;17880.3700
1822.0000;17883.7000
1823.0000;17873.1700
1824.0000;17854.7200
1825.0000;17828.0200
1826.0000;17805.2700
1827.0000;17806.8600
1828.0000;17839.8900
1829.0000;17872.5100
1830.0000;17873.2800
1831.0000;17856.5100
1832.0000;17847.3600
1833.0000;17841.7600
1834.0000;17828.4100
1835.0000;17805.9900
1836.0000;17797.0400
1837.0000;17819.0600
1838.0000;17852.2000
1839.0000;17864.9600
1840.0000;17858.7600
1841.0000;17862.3800
1842.0000;17884.0400
1843.0000;17903.1600
1844.0000;17906.5900
1845.0000;17901.4300
1846.0000;17908.2100
1847.0000;17917.6400
1848.0000;17904.4800
1849.0000;17861.4200
1850.0000;17835.7300
1851.0000;17870.9800
1852.0000;17924.2500
1853.0000;17929.7900
1854.0000;17897.4200
1855.0000;17883.5200
1856.0000;17905.6200
1857.0000;17930.3200
1858.0000;17931.5300
1859.0000;17929.0400
1860.0000;17950.5500
1861.0000;17982.7800
1862.0000;17997.4300
1863.0000;17983.9600
1864.0000;17967.9500
1865.0000;17968.5500
1866.0000;17982.0900
1867.0000;18011.3300
1868.0000;18045.1200
1869.0000;18059.3200
1870.0000;18044.4900
1871.0000;18029.8500
1872.0000;18039.4100
1873.0000;18057.6000
1874.0000;18072.1200
1875.0000;18081.5800
1876.0000;18089.2400
1877.0000;18092.9800
1878.0000;18090.2500
1879.0000;18080.1200
1880.0000;18070.2700
1881.0000;18069.0400
1882.0000;18078.4800
1883.0000;18098.2600
1884.0000;18123.8300
1885.0000;18140.3600
1886.0000;18135.2800
1887.0000;18131.0600
1888.0000;18160.9500
1889.0000;18203.4500
1890.0000;18226.6300
1891.0000;18223.2600
1892.0000;18214.1600
1893.0000;18210.3000
1894.0000;18204.3600
1895.0000;18194.3600
1896.0000;18185.8200
1897.0000;18182.2200
1898.0000;18186.5600
1899.0000;18197.2200
1900.0000;18212.9200
1901.0000;18226.3100
1902.0000;18230.2300
1903.0000;18226.9400
1904.0000;18224.9500
1905.0000;18225.2300
1906.0000;18232.3500
1907.0000;18247.8300
1908.0000;18262.9400
1909.0000;18272.9900
1910.0000;18276.4600
1911.0000;18276.4300
1912.0000;18273.0400
1913.0000;18275.6000
1914.0000;18285.2200
1915.0000;18293.1500
1916.0000;18294.5600
1917.0000;18290.4700
1918.0000;18281.5600
1919.0000;18273.6700
1920.0000;18275.0300
1921.0000;18289.2000
1922.0000;18315.3300
1923.0000;18351.9700
1924.0000;18389.3800
1925.0000;18432.0400
1926.0000;18456.3500
1927.0000;18456.1700
1928.0000;18431.4000
1929.0000;18420.1600
1930.0000;18438.6200
1931.0000;18464.9200
1932.0000;18485.8500
1933.0000;18494.6400
1934.0000;18482.3000
1935.0000;18455.6500
1936.0000;18449.5200
1937.0000;18471.6800
1938.0000;18486.6500
1939.0000;18468.0500
1940.0000;18452.9800
1941.0000;18481.9200
1942.0000;18531.7400
1943.0000;18556.2800
1944.0000;18550.2500
1945.0000;18550.5600
1946.0000;18573.1900
1947.0000;18607.6700
1948.0000;18656.4800
1949.0000;18698.4700
1950.0000;18714.9200
1951.0000;18703.4400
1952.0000;18702.2700
1953.0000;18721.9600
1954.0000;18739.2200
1955.0000;18740.4300
1956.0000;18741.2800
1957.0000;18771.9100
1958.0000;18806.3300
1959.0000;18796.0000
1960.0000;18741.0900
1961.0000;18710.0100
1962.0000;18745.7600
1963.0000;18793.0000
1964.0000;18795.0400
1965.0000;18778.7800
1966.0000;18785.1400
1967.0000;18805.4000
1968.0000;18807.2000
1969.0000;18781.5500
1970.0000;18771.6200
1971.0000;18812.4000
1972.0000;18862.6300
1973.0000;18875.7800
1974.0000;18861.7300
1975.0000;18859.3700
1976.0000;18871.8900
1977.0000;18885.9200
1978.0000;18895.3500
1979.0000;18910.0000
1980.0000;18949.1300
1981.0000;18982.7300
1982.0000;18982.9200
1983.0000;18951.3100
1984.0000;18928.0000
1985.0000;18926.6500
1986.0000;18935.2500
1987.0000;18947.1500
1988.0000;18962.6300
1989.0000;18981.5200
1990.0000;18993.6800
1991.0000;18989.3600
1992.0000;18969.1300
1993.0000;18957.4200
1994.0000;18966.2000
1995.0000;18987.0400
1996.0000;19014.2800
1997.0000;19038.8500
1998.0000;19047.5900
1999.0000;19044.4800
2000.0000;19063.6500
2001.0000;19104.0300
2002.0000;19120.6900
2003.0000;19086.4300
2004.0000;19050.9400
2005.0000;19071.0300
2006.0000;19115.2800
2007.0000;19134.9000
2008.0000;19130.3400
2009.0000;19134.1200
2010.0000;19152.9300
2011.0000;19159.1300
2012.0000;19136.2700
2013.0000;19113.2300
2014.0000;19124.3000
2015.0000;19154.6700
2016.0000;19169.8600
2017.0000;19169.4500
2018.0000;19183.7900
2019.0000;19223.0900
2020.0000;19249.9200
2021.0000;19241.9700
2022.0000;19216.1400
2023.0000;19208.5000
2024.0000;19206.2800
2025.0000;19181.4400
2026.0000;19140.2500
2027.0000;19117.2800
2028.0000;19130.9000
2029.0000;19151.6400
2030.0000;19148.1200
2031.0000;19132.2900
2032.0000;19111.8900
2033.0000;19090.7500
2034.0000;19075.9600
2035.0000;19071.6900
2036.0000;19067.7800
2037.0000;19056.8200
2038.0000;19058.2200
2039.0000;19081.2400
2040.0000;19119.0800
2041.0000;19159.2400
2042.0000;19189.5400
2043.0000;19203.8400
2044.0000;19194.0200
2045.0000;19173.3900
2046.0000;19152.2200
2047.0000;19134.8000
2048.0000;19124.7100
2049.0000;19125.7100
2050.0000;19130.0400
2051.0000;19137.6000
2052.0000;19137.0600
2053.0000;19128.1300
2054.0000;19135.6500
2055.0000;19174.1800
2056.0000;19213.0000
2057.0000;19224.5700
2058.0000;19214.3000
2059.0000;19205.2100
2060.0000;19196.0200
2061.0000;19191.2000
2062.0000;19191.7500
2063.0000;19175.4900
2064.0000;19127.9800
2065.0000;19095.2000
2066.0000;19128.1600
2067.0000;19179.6100
2068.0000;19163.5200
2069.0000;19096.1700
2070.0000;19052.7400
2071.0000;19053.4200
2072.0000;19067.1800
2073.0000;19078.7500
2074.0000;19087.8100
2075.0000;19080.0600
2076.0000;19072.0600
2077.0000;19093.7000
2078.0000;19129.2100
2079.0000;19133.4800
2080.0000;19099.3800
2081.0000;19067.6700
2082.0000;19061.7100
2083.0000;19076.4900
2084.0000;19108.5700
2085.0000;19145.2900
2086.0000;19169.2500
2087.0000;19172.1700
2088.0000;19164.0400
2089.0000;19146.0000
2090.0000;19135.9300
2091.0000;19144.3000
2092.0000;19159.4500
2093.0000;19172.1700
2094.0000;19178.8500
2095.0000;19173.1400
2096.0000;19161.6800
2097.0000;19167.5400
2098.0000;19188.4800
2099.0000;19200.1200
2100.0000;19191.2600
2101.0000;19182.8300
2102.0000;19190.3400
2103.0000;19202.4200
2104.0000;19211.3000
2105.0000;19215.5300
2106.0000;19215.0100
2107.0000;19211.2900
2108.0000;19215.8100
2109.0000;19231.4400
2110.0000;19248.8100
2111.0000;19263.2500
2112.0000;19266.0000
2113.0000;19250.3800
2114.0000;19229.3600
2115.0000;19228.2500
2116.0000;19243.3700
2117.0000;19249.6400
2118.0000;19242.8500
2119.0000;19237.0800
2120.0000;19238.3700
2121.0000;19242.3100
2122.0000;19248.7000
2123.0000;19249.2900
2124.0000;19233.5200
2125.0000;19209.6600
2126.0000;19193.3000
2127.0000;19190.7700
2128.0000;19197.3000
2129.0000;19211.9700
2130.0000;19231.5700
2131.0000;19252.0500
2132.0000;19264.1700
2133.0000;19262.7700
2134.0000;19251.1100
2135.0000;19251.0500
2136.0000;19256.4400
2137.0000;19251.5300
2138.0000;19233.7600
2139.0000;19208.6200
2140.0000;19179.8600
2141.0000;19165.2600
2142.0000;19178.1700
2143.0000;19201.5700
2144.0000;19203.9600
2145.0000;19190.8600
2146.0000;19177.4200
2147.0000;19164.5400
2148.0000;19147.5200
2149.0000;19128.5400
2150.0000;19117.3100
2151.0000;19117.3500
2152.0000;19132.4000
2153.0000;19163.7100
2154.0000;19193.2600
2155.0000;19192.0000
2156.0000;19168.2100
2157.0000;19164.1200
2158.0000;19181.8600
2159.0000;19189.8200
2160.0000;19175.4300
2161.0000;19139.4500
2162.0000;19075.5900
2163.0000;19031.5700
2164.0000;19058.8800
2165.0000;19120.8200
2166.0000;19136.0000
2167.0000;19104.1000
2168.0000;19064.2400
2169.0000;19027.6100
2170.0000;19004.0200
2171.0000;19005.0600
2172.0000;19009.2700
2173.0000;18990.0000
2174.0000;18973.1300
2175.0000;18974.4500
2176.0000;18990.5700
2177.0000;19006.1700
2178.0000;19016.7900
2179.0000;19014.9300
2180.0000;18999.4100
2181.0000;18993.5100
2182.0000;19010.8600
2183.0000;19024.3400
2184.0000;19011.7100
2185.0000;18989.3400
2186.0000;18971.8500
2187.0000;18967.4100
2188.0000;18981.6900
2189.0000;19012.6000
2190.0000;19036.2100
2191.0000;19043.6000
2192.0000;19046.1500
2193.0000;19050.0000
2194.0000;19044.4100
2195.0000;19025.2000
2196.0000;19004.3200
2197.0000;18995.7300
2198.0000;18997.2100
2199.0000;18994.9300
2200.0000;18987.8900
2201.0000;18970.2400
2202.0000;18943.0500
2203.0000;18912.7000
2204.0000;18882.5600
2205.0000;18873.8200
2206.0000;18897.2800
2207.0000;18934.1000
2208.0000;18950.7100
2209.0000;18951.0800
2210.0000;18949.2200
2211.0000;18942.7500
2212.0000;18938.5500
2213.0000;18937.2000
2214.0000;18928.6700
2215.0000;18910.0600
2216.0000;18887.9000
2217.0000;18862.5700
2218.0000;18850.4300
2219.0000;18864.0500
2220.0000;18885.4600
2221.0000;18871.2500
2222.0000;18835.6600
2223.0000;18815.5100
2224.0000;18821.1600
2225.0000;18837.3800
2226.0000;18858.0900
2227.0000;18877.9000
2228.0000;18890.0800
2229.0000;18887.5600
2230.0000;18871.4200
2231.0000;18844.7300
2232.0000;18816.9700
2233.0000;18800.5600
2234.0000;18805.1600
2235.0000;18830.7700
2236.0000;18853.3500
2237.0000;18862.4300
2238.0000;18847.2400
2239.0000;18802.2000
2240.0000;18763.2000
2241.0000;18763.1300
2242.0000;18776.5900
2243.0000;18758.5500
2244.0000;18741.4100
2245.0000;18764.6100
2246.0000;18813.2300
2247.0000;18837.2000
2248.0000;18825.4700
2249.0000;18807.7500
2250.0000;18794.4500
2251.0000;18785.3100
2252.0000;18784.2600
2253.0000;18787.8800
2254.0000;18789.3700
2255.0000;18790.7200
2256.0000;18793.0000
2257.0000;18791.6500
2258.0000;18779.0400
2259.0000;18760.6800
2260.0000;18750.7300
2261.0000;18755.7300
2262.0000;18775.2200
2263.0000;18806.8500
2264.0000;18821.7900
2265.0000;18799.4600
2266.0000;18762.7100
2267.0000;18738.4200
2268.0000;18726.3500
2269.0000;18717.3600
2270.0000;18722.4400
2271.0000;18744.0300
2272.0000;18775.2100
2273.0000;18788.2400
2274.0000;18774.5000
2275.0000;18752.2200
2276.0000;18731.3100
2277.0000;18711.3900
2278.0000;18694.4700
2279.0000;18685.9300
2280.0000;18680.1200
2281.0000;18684.4900
2282.0000;18697.9400
2283.0000;18712.6600
2284.0000;18709.0500
2285.0000;18689.8800
2286.0000;18678.7700
2287.0000;18683.4400
2288.0000;18703.4600
2289.0000;18736.0400
2290.0000;18747.9400
2291.0000;18713.1500
2292.0000;18674.5800
2293.0000;18679.5500
2294.0000;18707.8800
2295.0000;18735.5000
2296.0000;18751.0400
2297.0000;18736.4000
2298.0000;18699.0300
2299.0000;18689.3700
2300.0000;18711.9100
2301.0000;18717.5700
2302.0000;18689.8900
2303.0000;18665.7100
2304.0000;18665.4000
2305.0000;18677.4300
2306.0000;18690.2100
2307.0000;18703.6400
2308.0000;18714.9900
2309.0000;18719.7800
2310.0000;18717.8400
2311.0000;18712.4100
2312.0000;18723.1800
2313.0000;18744.0200
2314.0000;18739.4000
2315.0000;18703.1200
2316.0000;18676.4400
2317.0000;18683.3700
2318.0000;18687.9600
2319.0000;18660.0500
2320.0000;18641.6000
2321.0000;18678.4900
2322.0000;18716.2500
2323.0000;18679.5600
2324.0000;18609.8300
2325.0000;18590.1800
2326.0000;18618.6500
2327.0000;18634.1100
2328.0000;18629.3400
2329.0000;18627.1000
2330.0000;18632.7400
2331.0000;18641.9100
2332.0000;18653.0100
2333.0000;18667.5000
2334.0000;18687.5700
2335.0000;18706.0000
2336.0000;18724.0300
2337.0000;18732.7200
2338.0000;18729.8000
2339.0000;18723.3500
2340.0000;18743.4600
2341.0000;18779.5600
2342.0000;18794.4100
2343.0000;18780.4800
2344.0000;18768.4000
2345.0000;18767.9900
2346.0000;18757.5500
2347.0000;18727.8500
2348.0000;18706.1300
2349.0000;18709.9700
2350.0000;18728.8000
2351.0000;18748.1400
2352.0000;18756.8000
2353.0000;18730.9200
2354.0000;18697.9200
2355.0000;18712.8800
2356.0000;18767.1300
2357.0000;18804.8800
2358.0000;18811.9200
2359.0000;18809.1300
2360.0000;18799.3100
2361.0000;18786.4100
2362.0000;18776.7000
2363.0000;18776.6900
2364.0000;18794.4600
2365.0000;18800.1400
2366.0000;18757.3300
2367.0000;18716.2900
2368.0000;18736.7700
2369.0000;18784.1800
2370.0000;18777.5700
2371.0000;18743.0900
2372.0000;18763.4900
2373.0000;18825.3000
2374.0000;18840.2400
2375.0000;18793.5900
2376.0000;18766.9100
2377.0000;18789.4200
2378.0000;18799.8900
2379.0000;18766.7000
2380.0000;18742.9700
2381.0000;18766.2600
2382.0000;18801.7900
2383.0000;18817.7800
2384.0000;18810.3600
2385.0000;18778.2700
2386.0000;18735.0600
2387.0000;18713.8000
2388.0000;18714.2700
2389.0000;18702.3000
2390.0000;18682.6100
2391.0000;18672.9600
2392.0000;18678.0000
2393.0000;18686.4300
2394.0000;18693.0300
2395.0000;18694.6400
2396.0000;18688.1200
2397.0000;18676.8200
2398.0000;18662.1300
2399.0000;18658.4400
2400.0000;18677.8500
2401.0000;18704.3300
2402.0000;18712.7400
2403.0000;18709.9100
2404.0000;18715.1800
2405.0000;18726.0600
2406.0000;18747.3100
2407.0000;18768.3700
2408.0000;18762.3600
2409.0000;18729.9300
2410.0000;18717.4100
2411.0000;18739.1200
2412.0000;18745.3500
2413.0000;18715.6200
2414.0000;18686.5500
2415.0000;18681.9500
2416.0000;18682.4900
2417.0000;18668.9100
2418.0000;18655.8000
2419.0000;18647.0300
2420.0000;18649.7600
2421.0000;18667.0700
2422.0000;18689.2300
2423.0000;18695.3100
2424.0000;18688.4100
2425.0000;18692.7800
2426.0000;18706.6700
2427.0000;18718.7200
2428.0000;18722.7700
2429.0000;18709.3300
2430.0000;18678.6900
2431.0000;18662.1700
2432.0000;18677.7700
2433.0000;18696.1000
2434.0000;18693.8500
2435.0000;18700.1500
2436.0000;18739.5300
2437.0000;18770.8800
2438.0000;18756.3200
2439.0000;18719.1200
2440.0000;18708.0000
2441.0000;18705.7500
2442.0000;18683.0700
2443.0000;18651.7800
2444.0000;18627.0400
2445.0000;18617.2500
2446.0000;18620.1500
2447.0000;18633.4100
2448.0000;18633.5800
2449.0000;18614.7800
2450.0000;18593.9400
2451.0000;18579.6600
2452.0000;18558.5200
2453.0000;18524.4200
2454.0000;18513.4500
2455.0000;18548.9000
2456.0000;18578.7400
2457.0000;18551.5300
2458.0000;18503.0000
2459.0000;18470.3600
2460.0000;18460.5300
2461.0000;18471.5200
2462.0000;18500.7700
2463.0000;18521.8500
2464.0000;18530.5800
2465.0000;18533.5300
2466.0000;18524.8700
2467.0000;18501.9000
2468.0000;18475.0800
2469.0000;18473.7900
2470.0000;18505.8700
2471.0000;18538.4800
2472.0000;18555.6900
2473.0000;18559.3500
2474.0000;18548.4300
2475.0000;18536.3400
2476.0000;18535.0700
2477.0000;18547.1800
2478.0000;18576.3100
2479.0000;18601.4800
2480.0000;18608.2400
2481.0000;18589.6300
2482.0000;18540.9400
2483.0000;18498.2000
2484.0000;18514.5000
2485.0000;18561.8800
2486.0000;18572.7300
2487.0000;18548.2600
2488.0000;18502.9100
2489.0000;18456.3700
2490.0000;18455.9500
2491.0000;18497.3900
2492.0000;18500.3800
2493.0000;18455.9300
2494.0000;18421.7700
2495.0000;18416.7700
2496.0000;18419.2600
2497.0000;18423.3200
2498.0000;18427.9600
2499.0000;18428.7700
2500.0000;18439.0400
2501.0000;18466.0900
2502.0000;18490.8700
2503.0000;18501.9400
2504.0000;18493.5700
2505.0000;18464.3400
2506.0000;18439.1900
2507.0000;18457.1400
2508.0000;18486.0700
2509.0000;18464.7000
2510.0000;18433.9300
2511.0000;18464.5100
2512.0000;18523.6500
2513.0000;18539.3200
2514.0000;18510.9500
2515.0000;18479.9200
2516.0000;18453.0600
2517.0000;18438.7700
2518.0000;18437.9200
2519.0000;18417.4700
2520.0000;18378.1200
2521.0000;18356.6200
2522.0000;18367.4100
2523.0000;18378.0700
2524.0000;18374.7800
2525.0000;18372.2900
2526.0000;18375.5000
2527.0000;18381.8700
2528.0000;18391.7200
2529.0000;18388.5300
2530.0000;18360.0800
2531.0000;18331.8800
2532.0000;18327.8700
2533.0000;18341.4600
2534.0000;18359.5200
2535.0000;18377.6300
2536.0000;18391.6300
2537.0000;18387.8900
2538.0000;18357.9400
2539.0000;18318.9800
2540.0000;18306.3800
2541.0000;18314.9300
2542.0000;18308.0700
2543.0000;18292.5000
2544.0000;18277.4600
2545.0000;18270.4700
2546.0000;18276.9000
2547.0000;18295.0100
2548.0000;18303.9100
2549.0000;18297.2100
2550.0000;18283.2300
2551.0000;18263.2100
2552.0000;18230.5100
2553.0000;18189.7400
2554.0000;18171.4700
2555.0000;18189.3200
2556.0000;18216.9700
2557.0000;18237.2900
2558.0000;18232.6700
2559.0000;18191.4800
2560.0000;18154.5900
2561.0000;18158.7900
2562.0000;18164.9100
2563.0000;18133.1200
2564.0000;18114.9800
2565.0000;18152.0100
2566.0000;18192.7700
2567.0000;18181.0900
2568.0000;18144.4600
2569.0000;18119.4500
2570.0000;18113.1300
2571.0000;18139.6300
2572.0000;18174.0500
2573.0000;18168.4300
2574.0000;18135.6600
2575.0000;18113.9800
2576.0000;18108.0200
2577.0000;18115.9900
2578.0000;18135.3500
2579.0000;18146.0300
2580.0000;18145.9900
2581.0000;18144.1100
2582.0000;18141.0600
2583.0000;18143.1900
2584.0000;18147.5300
2585.0000;18136.5900
2586.0000;18112.4200
2587.0000;18105.7600
2588.0000;18122.6300
2589.0000;18124.0400
2590.0000;18104.2600
2591.0000;18117.4100
2592.0000;18177.4100
2593.0000;18201.9200
2594.0000;18155.5300
2595.0000;18127.6500
2596.0000;18163.6700
2597.0000;18192.7400
2598.0000;18176.8600
2599.0000;18162.3000
2600.0000;18176.2100
2601.0000;18193.1800
2602.0000;18199.0900
2603.0000;18187.0300
2604.0000;18150.2600
2605.0000;18119.3600
2606.0000;18124.5500
2607.0000;18142.5000
2608.0000;18139.9100
2609.0000;18132.9200
2610.0000;18131.9800
2611.0000;18136.4600
2612.0000;18147.0100
2613.0000;18158.0900
2614.0000;18164.6800
2615.0000;18161.1700
2616.0000;18144.0500
2617.0000;18125.9000
2618.0000;18135.1600
2619.0000;18147.4100
2620.0000;18105.7800
2621.0000;18049.9600
2622.0000;18056.9600
2623.0000;18108.3600
2624.0000;18132.3800
2625.0000;18127.2300
2626.0000;18111.4600
2627.0000;18089.2900
2628.0000;18080.4100
2629.0000;18084.3500
2630.0000;18073.3400
2631.0000;18057.4200
2632.0000;18072.5200
2633.0000;18112.4100
2634.0000;18120.1700
2635.0000;18094.5800
2636.0000;18092.0100
2637.0000;18116.0400
2638.0000;18126.5900
2639.0000;18115.0900
2640.0000;18096.8100
2641.0000;18078.6400
2642.0000;18063.8300
2643.0000;18058.2900
2644.0000;18064.3800
2645.0000;18080.0400
2646.0000;18083.8500
2647.0000;18067.2600
2648.0000;18046.1300
2649.0000;18029.6800
2650.0000;18014.1700
2651.0000;18001.6800
2652.0000;17995.6400
2653.0000;17996.8300
2654.0000;18002.1300
2655.0000;18008.1100
2656.0000;18015.3300
2657.0000;18022.4500
2658.0000;18016.0500
2659.0000;17990.3600
2660.0000;17981.4000
2661.0000;18012.0800
2662.0000;18027.3500
2663.0000;17991.6500
2664.0000;17956.9600
2665.0000;17960.0300
2666.0000;17968.6600
2667.0000;17962.1100
2668.0000;17953.8500
2669.0000;17949.8600
2670.0000;17940.4500
2671.0000;17918.8900
2672.0000;17894.1500
2673.0000;17871.1200
2674.0000;17862.6100
2675.0000;17878.1700
2676.0000;17885.0300
2677.0000;17850.8000
2678.0000;17805.4300
2679.0000;17772.2200
2680.0000;17761.7800
2681.0000;17778.8400
2682.0000;17805.3600
2683.0000;17814.6800
2684.0000;17809.1400
2685.0000;17794.1300
2686.0000;17770.4100
2687.0000;17744.8600
2688.0000;17725.9600
2689.0000;17713.4400
2690.0000;17718.8700
2691.0000;17742.5800
2692.0000;17769.9700
2693.0000;17780.5300
2694.0000;17777.8400
2695.0000;17774.2100
2696.0000;17766.2000
2697.0000;17756.5700
2698.0000;17754.0700
2699.0000;17770.3900
2700.0000;17782.1100
2701.0000;17762.7800
2702.0000;17730.7700
2703.0000;17706.8800
2704.0000;17701.2900
2705.0000;17723.0000
2706.0000;17741.9100
2707.0000;17711.7800
2708.0000;17667.3900
2709.0000;17642.7900
2710.0000;17651.4100
2711.0000;17695.8000
2712.0000;17753.3100
2713.0000;17790.0700
2714.0000;17797.9900
2715.0000;17788.8000
2716.0000;17767.3200
2717.0000;17761.1300
2718.0000;17765.2300
2719.0000;17770.7400
2720.0000;17784.8800
2721.0000;17814.1500
2722.0000;17835.5000
2723.0000;17831.5200
2724.0000;17807.0500
2725.0000;17776.9600
2726.0000;17758.9400
2727.0000;17773.0100
2728.0000;17792.9400
2729.0000;17773.8600
2730.0000;17756.4700
2731.0000;17792.1600
2732.0000;17817.2600
2733.0000;17759.4400
2734.0000;17691.5200
2735.0000;17693.5300
2736.0000;17716.3800
2737.0000;17693.3100
2738.0000;17672.1300
2739.0000;17686.0300
2740.0000;17711.0000
2741.0000;17722.8800
2742.0000;17718.2300
2743.0000;17696.4100
2744.0000;17667.2700
2745.0000;17647.0800
2746.0000;17635.7300
2747.0000;17627.8400
2748.0000;17629.1000
2749.0000;17634.8700
2750.0000;17643.0800
2751.0000;17647.3400
2752.0000;17649.4700
2753.0000;17652.9900
2754.0000;17645.5500
2755.0000;17620.3700
2756.0000;17595.5400
2757.0000;17586.7200
2758.0000;17590.9300
2759.0000;17602.5200
2760.0000;17616.0100
2761.0000;17622.8500
2762.0000;17616.5300
2763.0000;17593.4100
2764.0000;17589.5600
2765.0000;17628.4300
2766.0000;17648.8600
2767.0000;17614.6100
2768.0000;17571.8600
2769.0000;17550.9400
2770.0000;17528.5800
2771.0000;17500.1700
2772.0000;17475.8400
2773.0000;17462.0700
2774.0000;17470.0300
2775.0000;17499.9600
2776.0000;17505.9000
2777.0000;17468.6300
2778.0000;17428.6600
2779.0000;17405.4300
2780.0000;17396.4600
2781.0000;17405.1300
2782.0000;17429.5000
2783.0000;17460.7000
2784.0000;17471.7300
2785.0000;17454.1500
2786.0000;17439.7400
2787.0000;17437.6200
2788.0000;17438.9500
2789.0000;17441.9600
2790.0000;17438.1100
2791.0000;17428.6100
2792.0000;17424.2500
2793.0000;17428.9000
2794.0000;17438.3700
2795.0000;17452.4800
2796.0000;17474.3400
2797.0000;17498.0900
2798.0000;17524.3700
2799.0000;17537.2800
2800.0000;17521.9500
2801.0000;17484.0900
2802.0000;17448.7400
2803.0000;17434.0200
2804.0000;17448.6100
2805.0000;17490.4700
2806.0000;17532.4700
2807.0000;17564.8200
2808.0000;17592.4500
2809.0000;17597.8500
2810.0000;17586.3600
2811.0000;17561.9100
2812.0000;17538.5700
2813.0000;17537.6400
2814.0000;17589.8100
2815.0000;17633.7100
2816.0000;17588.6400
2817.0000;17515.0700
2818.0000;17490.7100
2819.0000;17494.9800
2820.0000;17502.3900
2821.0000;17507.3400
2822.0000;17488.7800
2823.0000;17475.0800
2824.0000;17485.6800
2825.0000;17508.4400
2826.0000;17533.2600
2827.0000;17540.1600
2828.0000;17516.0600
2829.0000;17497.6900
2830.0000;17508.3300
2831.0000;17532.5800
2832.0000;17559.1600
2833.0000;17573.7300
2834.0000;17566.7400
2835.0000;17551.1900
2836.0000;17534.4300
2837.0000;17519.7500
2838.0000;17513.4800
2839.0000;17514.6900
2840.0000;17522.1900
2841.0000;17519.6800
2842.0000;17511.1700
2843.0000;17527.2100
2844.0000;17561.6000
2845.0000;17583.2100
2846.0000;17577.6900
2847.0000;17544.6100
2848.0000;17496.4200
2849.0000;17474.1600
2850.0000;17473.3300
2851.0000;17449.4700
2852.0000;17429.5300
2853.0000;17444.7900
2854.0000;17470.6200
2855.0000;17459.0000
2856.0000;17423.4000
2857.0000;17382.3400
2858.0000;17350.3200
2859.0000;17328.2700
2860.0000;17342.1300
2861.0000;17399.1800
2862.0000;17452.5100
2863.0000;17458.1400
2864.0000;17444.8800
2865.0000;17440.0500
2866.0000;17442.9500
2867.0000;17459.3700
2868.0000;17461.7900
2869.0000;17437.1900
2870.0000;17405.4800
2871.0000;17380.8800
2872.0000;17364.0500
2873.0000;17360.0600
2874.0000;17364.6600
2875.0000;17378.7300
2876.0000;17410.4700
2877.0000;17446.2600
2878.0000;17436.5800
2879.0000;17394.1800
2880.0000;17404.4500
2881.0000;17456.3700
2882.0000;17480.8400
2883.0000;17476.5400
2884.0000;17469.9300
2885.0000;17458.5900
2886.0000;17453.1500
2887.0000;17446.6200
2888.0000;17421.9900
2889.0000;17406.0600
2890.0000;17422.9400
2891.0000;17448.2600
2892.0000;17449.8300
2893.0000;17444.5400
2894.0000;17446.4200
2895.0000;17444.1000
2896.0000;17432.5600
2897.0000;17441.3100
2898.0000;17482.5300
2899.0000;17505.2400
2900.0000;17487.4000
2901.0000;17467.4300
2902.0000;17460.7300
2903.0000;17464.0400
2904.0000;17472.3500
2905.0000;17450.5700
2906.0000;17408.7100
2907.0000;17397.1500
2908.0000;17422.5600
2909.0000;17448.3400
2910.0000;17472.1200
2911.0000;17502.6200
2912.0000;17520.4100
2913.0000;17513.0900
2914.0000;17488.0200
2915.0000;17474.7700
2916.0000;17468.7100
2917.0000;17464.1800
2918.0000;17460.0900
2919.0000;17450.0100
2920.0000;17437.9900
2921.0000;17427.2600
2922.0000;17403.7100
2923.0000;17361.3300
2924.0000;17331.0100
2925.0000;17330.7500
2926.0000;17339.6400
2927.0000;17349.4200
2928.0000;17356.8000
2929.0000;17358.7300
2930.0000;17362.6600
2931.0000;17366.1200
2932.0000;17362.9700
2933.0000;17351.5000
2934.0000;17329.4100
2935.0000;17311.1900
2936.0000;17318.7500
2937.0000;17341.7400
2938.0000;17357.0300
2939.0000;17343.5100
2940.0000;17277.2500
2941.0000;17210.1000
2942.0000;17196.4900
2943.0000;17221.6600
2944.0000;17262.4200
2945.0000;17307.2100
2946.0000;17337.4600
2947.0000;17342.0800
2948.0000;17315.9100
2949.0000;17274.9500
2950.0000;17240.1000
2951.0000;17265.4800
2952.0000;17341.1400
2953.0000;17356.4600
2954.0000;17307.4800
2955.0000;17279.5000
2956.0000;17276.0800
2957.0000;17278.0900
2958.0000;17283.7500
2959.0000;17279.9300
2960.0000;17263.5600
2961.0000;17229.6700
2962.0000;17202.5200
2963.0000;17205.8800
2964.0000;17212.7000
2965.0000;17197.5800
2966.0000;17175.7700
2967.0000;17156.2300
2968.0000;17136.5900
2969.0000;17123.3400
2970.0000;17139.8700
2971.0000;17185.1900
2972.0000;17212.5800
2973.0000;17212.2600
2974.0000;17213.7700
2975.0000;17216.2900
2976.0000;17226.4600
2977.0000;17231.3600
2978.0000;17209.3100
2979.0000;17183.0900
2980.0000;17184.8300
2981.0000;17206.1800
2982.0000;17231.6600
2983.0000;17248.8700
2984.0000;17246.4300
2985.0000;17237.5400
2986.0000;17233.5800
2987.0000;17228.1300
2988.0000;17221.8100
2989.0000;17221.6800
2990.0000;17228.1500
2991.0000;17229.3800
2992.0000;17224.4800
2993.0000;17217.2700
2994.0000;17215.0700
2995.0000;17231.3000
2996.0000;17253.8000
2997.0000;17256.7200
2998.0000;17257.5000
2999.0000;17287.2200
3000.0000;17307.0000
3001.0000;17289.5400
3002.0000;17256.1700
3003.0000;17227.0800
3004.0000;17211.1900
3005.0000;17215.6400
3006.0000;17217.4100
3007.0000;17212.2800
3008.0000;17217.3500
3009.0000;17232.9600
3010.0000;17253.8000
3011.0000;17264.1100
3012.0000;17239.2700
3013.0000;17201.7100
3014.0000;17201.3300
3015.0000;17211.9400
3016.0000;17188.8100
3017.0000;17182.4600
3018.0000;17232.8200
3019.0000;17231.6000
3020.0000;17121.3700
3021.0000;17063.2300
3022.0000;17123.3200
3023.0000;17158.4000
3024.0000;17145.1700
3025.0000;17169.4700
3026.0000;17213.0100
3027.0000;17200.0000
3028.0000;17149.1300
3029.0000;17138.3600
3030.0000;17146.9300
3031.0000;17138.0500
3032.0000;17121.1000
3033.0000;17095.8900
3034.0000;17082.2600
3035.0000;17091.4500
3036.0000;17092.7600
3037.0000;17071.8000
3038.0000;17047.6000
3039.0000;17032.0100
3040.0000;17038.9800
3041.0000;17061.3500
3042.0000;17056.2500
3043.0000;17027.7700
3044.0000;17004.4000
3045.0000;16987.9700
3046.0000;16971.8600
3047.0000;16969.3100
3048.0000;16984.2500
3049.0000;16985.7200
3050.0000;16950.0400
3051.0000;16941.8600
3052.0000;16985.3800
3053.0000;17017.7900
3054.0000;17019.3400
3055.0000;17011.0300
3056.0000;16996.9700
3057.0000;16990.8000
3058.0000;16991.7700
3059.0000;16991.3500
3060.0000;16984.0900
3061.0000;16957.1400
3062.0000;16943.4600
3063.0000;16970.4500
3064.0000;16992.9900
3065.0000;16981.1000
3066.0000;16981.2900
3067.0000;17003.2900
3068.0000;16991.7100
3069.0000;16948.6200
3070.0000;16938.9400
3071.0000;16955.5400
3072.0000;16943.6400
3073.0000;16921.8000
3074.0000;16916.1300
3075.0000;16924.5000
3076.0000;16941.2100
3077.0000;16946.9400
3078.0000;16926.5700
3079.0000;16927.7000
3080.0000;16966.9500
3081.0000;16990.8100
3082.0000;16991.4100
3083.0000;17027.3200
3084.0000;17070.8200
3085.0000;17045.5400
3086.0000;16986.9200
3087.0000;16981.1400
3088.0000;17003.6500
3089.0000;17019.5700
3090.0000;17035.6700
3091.0000;17048.7900
3092.0000;17046.0500
3093.0000;17024.7700
3094.0000;17001.8600
3095.0000;16990.5400
3096.0000;17003.6600
3097.0000;17030.7300
3098.0000;17026.1100
3099.0000;17004.6700
3100.0000;17005.8500
3101.0000;17011.2600
3102.0000;17001.2200
3103.0000;16997.0500
3104.0000;17010.3100
3105.0000;17012.3300
3106.0000;16994.9300
3107.0000;16995.4500
3108.0000;17015.1400
3109.0000;17014.6800
3110.0000;17006.9300
3111.0000;17038.2700
3112.0000;17072.8700
3113.0000;17069.2300
3114.0000;17027.0100
3115.0000;16956.6700
3116.0000;16921.0000
3117.0000;16958.4800
3118.0000;16995.4600
3119.0000;17002.6700
3120.0000;16991.5900
3121.0000;16967.8200
3122.0000;16959.9300
3123.0000;16966.1300
3124.0000;16976.3200
3125.0000;16971.2100
3126.0000;16927.4900
3127.0000;16892.7300
3128.0000;16900.5800
3129.0000;16906.6200
3130.0000;16896.3800
3131.0000;16910.3300
3132.0000;16942.2300
3133.0000;16943.4100
3134.0000;16912.3500
3135.0000;16869.0900
3136.0000;16833.2800
3137.0000;16820.8200
3138.0000;16830.7300
3139.0000;16850.0100
3140.0000;16838.1900
3141.0000;16783.0800
3142.0000;16765.8600
3143.0000;16799.6000
3144.0000;16810.2100
3145.0000;16801.8400
3146.0000;16810.8700
3147.0000;16821.3000
3148.0000;16817.2400
3149.0000;16801.5600
3150.0000;16778.8900
3151.0000;16775.0200
3152.0000;16800.5300
3153.0000;16825.7800
3154.0000;16833.5300
3155.0000;16806.7900
3156.0000;16762.4300
3157.0000;16743.0100
3158.0000;16754.7500
3159.0000;16784.0200
3160.0000;16814.3500
3161.0000;16821.8500
3162.0000;16827.9500
3163.0000;16837.8100
3164.0000;16812.3200
3165.0000;16767.6200
3166.0000;16786.6800
3167.0000;16847.0300
3168.0000;16861.9600
3169.0000;16844.0600
3170.0000;16821.7600
3171.0000;16797.1100
3172.0000;16781.5000
3173.0000;16793.6100
3174.0000;16831.2700
3175.0000;16829.3800
3176.0000;16787.2900
3177.0000;16769.5100
3178.0000;16772.3600
3179.0000;16771.6900
3180.0000;16759.7900
3181.0000;16720.9700
3182.0000;16693.6300
3183.0000;16700.9200
3184.0000;16718.5100
3185.0000;16730.4600
3186.0000;16703.4400
3187.0000;16664.2100
3188.0000;16692.7200
3189.0000;16759.2600
3190.0000;16806.4800
3191.0000;16818.7200
3192.0000;16789.0600
3193.0000;16767.5500
3194.0000;16783.5600
3195.0000;16818.6200
3196.0000;16852.5400
3197.0000;16840.8700
3198.0000;16802.7100
3199.0000;16802.9100
3200.0000;16819.2800
3201.0000;16825.2600
3202.0000;16820.8800
3203.0000;16804.6300
3204.0000;16784.8400
3205.0000;16771.5700
3206.0000;16783.4400
3207.0000;16797.2800
3208.0000;16744.2600
3209.0000;16682.3500
3210.0000;16688.3300
3211.0000;16705.6200
3212.0000;16688.3900
3213.0000;16672.9300
3214.0000;16670.9600
3215.0000;16680.5000
3216.0000;16693.6700
3217.0000;16689.3200
3218.0000;16670.5400
3219.0000;16647.5000
3220.0000;16641.1100
3221.0000;16666.3300
3222.0000;16687.0500
3223.0000;16688.7000
3224.0000;16716.0600
3225.0000;16750.3300
3226.0000;16728.7100
3227.0000;16672.4900
3228.0000;16637.1500
3229.0000;16623.9900
3230.0000;16628.9400
3231.0000;16628.6200
3232.0000;16608.7600
3233.0000;16580.8200
3234.0000;16554.5800
3235.0000;16538.0800
3236.0000;16539.5300
3237.0000;16556.7500
3238.0000;16557.3700
3239.0000;16509.3200
3240.0000;16489.2500
3241.0000;16527.8200
3242.0000;16545.3200
3243.0000;16527.7200
3244.0000;16506.4100
3245.0000;16495.1900
3246.0000;16513.4100
3247.0000;16541.3800
3248.0000;16555.9900
3249.0000;16558.4900
3250.0000;16552.5000
3251.0000;16571.9200
3252.0000;16609.6500
3253.0000;16626.4500
3254.0000;16620.6600
3255.0000;16610.2300
3256.0000;16601.5700
3257.0000;16606.5100
3258.0000;16619.1400
3259.0000;16633.2900
3260.0000;16632.4100
3261.0000;16620.8100
3262.0000;16633.7700
3263.0000;16639.9600
3264.0000;16594.7400
3265.0000;16565.4200
3266.0000;16594.6600
3267.0000;16597.2000
3268.0000;16562.5500
3269.0000;16579.3100
3270.0000;16619.2500
3271.0000;16575.0700
3272.0000;16529.9000
3273.0000;16584.8000
3274.0000;16617.9700
3275.0000;16567.7500
3276.0000;16552.5700
3277.0000;16585.9200
3278.0000;16585.3200
3279.0000;16563.6000
3280.0000;16562.1900
3281.0000;16562.1700
3282.0000;16548.9300
3283.0000;16534.4100
3284.0000;16524.7100
3285.0000;16518.9300
3286.0000;16517.5000
3287.0000;16508.4500
3288.0000;16506.3300
3289.0000;16527.1500
3290.0000;16545.3700
3291.0000;16543.0600
3292.0000;16529.1500
3293.0000;16509.9000
3294.0000;16496.9800
3295.0000;16493.0600
3296.0000;16491.0400
3297.0000;16476.6500
3298.0000;16433.0500
3299.0000;16416.5200
3300.0000;16444.2000
3301.0000;16448.1600
3302.0000;16418.1300
3303.0000;16368.5000
3304.0000;16330.7200
3305.0000;16339.2100
3306.0000;16366.7500
3307.0000;16384.3200
3308.0000;16380.0300
3309.0000;16351.6800
3310.0000;16326.2700
3311.0000;16310.2000
3312.0000;16294.6300
3313.0000;16298.4100
3314.0000;16324.6800
3315.0000;16340.6700
3316.0000;16330.6700
3317.0000;16310.1300
3318.0000;16291.8700
3319.0000;16298.4900
3320.0000;16317.4300
3321.0000;16325.1600
3322.0000;16325.4000
3323.0000;16318.3600
3324.0000;16308.2800
3325.0000;16293.9000
3326.0000;16259.7400
3327.0000;16236.9100
3328.0000;16257.6600
3329.0000;16306.9600
3330.0000;16361.2800
3331.0000;16383.9500
3332.0000;16361.4900
3333.0000;16333.2200
3334.0000;16306.2100
3335.0000;16282.4600
3336.0000;16289.9900
3337.0000;16337.0500
3338.0000;16337.3500
3339.0000;16274.7000
3340.0000;16246.1900
3341.0000;16249.2100
3342.0000;16228.9500
3343.0000;16221.0700
3344.0000;16242.3200
3345.0000;16279.5400
3346.0000;16312.8900
3347.0000;16306.4100
3348.0000;16273.9600
3349.0000;16285.2600
3350.0000;16301.0600
3351.0000;16278.9600
3352.0000;16301.2600
3353.0000;16382.0100
3354.0000;16406.8900
3355.0000;16374.4600
3356.0000;16373.6800
3357.0000;16382.1200
3358.0000;16383.0300
3359.0000;16381.8500
3360.0000;16378.2600
3361.0000;16358.9200
3362.0000;16337.8200
3363.0000;16351.7500
3364.0000;16369.2400
3365.0000;16344.7300
3366.0000;16341.1500
3367.0000;16378.0800
3368.0000;16385.5800
3369.0000;16373.2500
3370.0000;16419.7600
3371.0000;16455.8700
3372.0000;16408.1300
3373.0000;16357.9200
3374.0000;16351.2600
3375.0000;16371.6600
3376.0000;16404.9800
3377.0000;16405.2200
3378.0000;16392.9600
3379.0000;16398.7100
3380.0000;16395.2700
3381.0000;16376.7600
3382.0000;16367.7100
3383.0000;16367.4200
3384.0000;16353.2800
3385.0000;16341.7300
3386.0000;16346.1300
3387.0000;16336.1600
3388.0000;16306.3800
3389.0000;16292.7800
3390.0000;16307.6100
3391.0000;16354.1100
3392.0000;16384.8700
3393.0000;16357.2800
3394.0000;16338.5500
3395.0000;16347.4000
3396.0000;16324.5500
3397.0000;16294.6300
3398.0000;16312.1100
3399.0000;16336.0200
3400.0000;16328.0500
3401.0000;16303.4700
3402.0000;16272.4200
3403.0000;16241.6600
3404.0000;16231.5100
3405.0000;16254.1400
3406.0000;16262.4900
3407.0000;16224.7300
3408.0000;16229.6400
3409.0000;16279.2300
3410.0000;16299.5000
3411.0000;16285.3000
3412.0000;16246.0900
3413.0000;16227.9500
3414.0000;16256.1800
3415.0000;16284.7600
3416.0000;16289.8700
3417.0000;16249.4000
3418.0000;16208.0900
3419.0000;16216.7700
3420.0000;16243.4300
3421.0000;16271.1700
3422.0000;16307.3600
3423.0000;16338.2000
3424.0000;16358.5800
3425.0000;16370.9900
3426.0000;16385.7000
3427.0000;16372.0900
3428.0000;16335.8300
3429.0000;16325.7500
3430.0000;16340.7000
3431.0000;16362.9200
3432.0000;16359.5700
3433.0000;16318.0400
3434.0000;16313.1100
3435.0000;16335.7300
3436.0000;16303.5000
3437.0000;16265.0100
3438.0000;16268.9800
3439.0000;16286.8500
3440.0000;16301.8500
3441.0000;16301.0500
3442.0000;16280.2700
3443.0000;16247.7500
3444.0000;16212.6600
3445.0000;16188.8000
3446.0000;16214.0500
3447.0000;16271.5400
3448.0000;16272.0200
3449.0000;16253.5500
3450.0000;16280.4300
3451.0000;16293.9600
3452.0000;16274.9300
3453.0000;16267.5500
3454.0000;16275.4000
3455.0000;16289.5000
3456.0000;16300.1900
3457.0000;16298.2600
3458.0000;16277.9600
3459.0000;16253.5300
3460.0000;16272.3100
3461.0000;16307.4200
3462.0000;16313.4400
3463.0000;16299.5500
3464.0000;16273.3300
3465.0000;16243.3200
3466.0000;16224.8000
3467.0000;16222.3000
3468.0000;16228.4900
3469.0000;16228.8600
3470.0000;16251.6400
3471.0000;16282.4500
3472.0000;16263.2900
3473.0000;16227.5600
3474.0000;16229.7900
3475.0000;16242.9100
3476.0000;16254.4800
3477.0000;16268.7000
3478.0000;16269.9700
3479.0000;16239.2400
3480.0000;16213.0400
3481.0000;16218.3900
3482.0000;16223.2200
3483.0000;16221.6900
3484.0000;16218.5500
3485.0000;16208.0200
3486.0000;16186.2900
3487.0000;16181.2900
3488.0000;16197.6900
3489.0000;16203.1000
3490.0000;16192.6900
3491.0000;16168.7300
3492.0000;16148.2900
3493.0000;16145.7600
3494.0000;16173.8300
3495.0000;16201.6000
3496.0000;16155.6800
3497.0000;16114.9600
3498.0000;16140.6600
3499.0000;16153.2900
3500.0000;16141.6300
3501.0000;16145.4300
3502.0000;16149.5500
3503.0000;16139.7300
3504.0000;16116.7500
3505.0000;16091.5100
3506.0000;16091.4900
3507.0000;16110.6600
3508.0000;16124.2500
3509.0000;16108.8300
3510.0000;16063.9500
3511.0000;16064.7200
3512.0000;16103.0700
3513.0000;16118.1600
3514.0000;16115.6200
3515.0000;16101.6600
3516.0000;16107.9800
3517.0000;16131.6200
3518.0000;16140.3100
3519.0000;16129.5900
3520.0000;16104.3800
3521.0000;16094.7700
3522.0000;16113.7500
3523.0000;16156.2800
3524.0000;16180.6800
3525.0000;16140.5900
3526.0000;16124.2600
3527.0000;16153.5100
3528.0000;16134.2300
3529.0000;16099.6800
3530.0000;16111.7700
3531.0000;16150.2600
3532.0000;16192.5900
3533.0000;16212.2000
3534.0000;16196.2600
3535.0000;16160.2300
3536.0000;16131.4800
3537.0000;16133.5000
3538.0000;16126.9000
3539.0000;16117.4000
3540.0000;16125.2000
3541.0000;16141.6500
3542.0000;16154.8500
3543.0000;16159.0000
3544.0000;16148.1300
3545.0000;16122.4100
3546.0000;16100.2100
3547.0000;16099.7800
3548.0000;16087.3000
3549.0000;16057.2300
3550.0000;16011.1800
3551.0000;15981.7000
3552.0000;15990.5800
3553.0000;15987.6600
3554.0000;15966.1100
3555.0000;15974.1800
3556.0000;15982.9600
3557.0000;15953.6400
3558.0000;15906.3400
3559.0000;15865.1000
3560.0000;15862.5100
3561.0000;15898.8300
3562.0000;15948.6300
3563.0000;15940.0300
3564.0000;15869.3200
3565.0000;15876.4200
3566.0000;15921.4900
3567.0000;15907.5200
3568.0000;15898.0600
3569.0000;15913.7800
3570.0000;15925.0400
3571.0000;15927.4800
3572.0000;15923.7900
3573.0000;15912.4300
3574.0000;15899.5600
3575.0000;15903.7500
3576.0000;15909.5600
3577.0000;15881.0700
3578.0000;15883.2700
3579.0000;15929.8500
3580.0000;15915.5300
3581.0000;15867.7200
3582.0000;15863.7300
3583.0000;15874.9600
3584.0000;15880.4100
3585.0000;15843.4400
3586.0000;15792.9800
3587.0000;15783.2900
3588.0000;15817.3000
3589.0000;15866.6800
3590.0000;15820.9700
3591.0000;15746.7900
3592.0000;15787.7800
3593.0000;15837.1200
3594.0000;15841.8500
3595.0000;15871.1900
3596.0000;15894.6300
3597.0000;15865.1600
3598.0000;15864.5200
3599.0000;15920.2300
3600.0000;15952.9100
3601.0000;15961.1900
3602.0000;15974.7700
3603.0000;15966.1800
3604.0000;15944.0600
3605.0000;15981.5400
3606.0000;16027.5800
3607.0000;15995.9600
3608.0000;15957.9800
3609.0000;15951.2700
3610.0000;15973.7700
3611.0000;15994.6300
3612.0000;15967.5800
3613.0000;15951.2700
3614.0000;15956.3700
3615.0000;15918.7900
3616.0000;15883.9900
3617.0000;15897.8700
3618.0000;15904.9900
3619.0000;15897.5300
3620.0000;15915.2800
3621.0000;15946.3200
3622.0000;15973.8500
3623.0000;15968.7800
3624.0000;15931.7600
3625.0000;15895.6100
3626.0000;15905.6200
3627.0000;15980.7400
3628.0000;16009.1200
3629.0000;15985.6000
3630.0000;16005.8500
3631.0000;16005.0300
3632.0000;15959.4600
3633.0000;15958.2900
3634.0000;15988.3700
3635.0000;15980.2300
3636.0000;15960.0700
3637.0000;15946.9600
3638.0000;15952.7300
3639.0000;15969.3000
3640.0000;15973.4000
3641.0000;15957.3700
3642.0000;15927.4500
3643.0000;15923.8300
3644.0000;15935.5100
3645.0000;15933.9600
3646.0000;15915.7600
3647.0000;15891.5000
3648.0000;15898.8700
3649.0000;15912.0100
3650.0000;15897.8100
3651.0000;15905.8800
3652.0000;15923.7600
3653.0000;15884.0000
3654.0000;15838.6700
3655.0000;15832.4900
3656.0000;15823.6300
3657.0000;15817.3000
3658.0000;15825.0200
3659.0000;15835.3200
3660.0000;15835.2000
3661.0000;15809.1500
3662.0000;15784.2700
3663.0000;15804.6200
3664.0000;15808.1200
3665.0000;15781.2300
3666.0000;15779.2100
3667.0000;15792.0500
3668.0000;15800.0900
3669.0000;15807.0700
3670.0000;15799.2700
3671.0000;15743.0100
3672.0000;15713.9900
3673.0000;15760.3200
3674.0000;15772.6800
3675.0000;15734.7100
3676.0000;15671.3600
3677.0000;15638.6500
3678.0000;15669.9400
3679.0000;15724.6800
3680.0000;15762.0100
3681.0000;15736.1700
3682.0000;15693.6600
3683.0000;15660.1300
3684.0000;15623.7700
3685.0000;15627.8000
3686.0000;15686.9900
3687.0000;15731.0400
3688.0000;15737.1200
3689.0000;15737.9600
3690.0000;15701.3500
3691.0000;15640.3100
3692.0000;15639.8800
3693.0000;15676.9400
3694.0000;15679.2300
3695.0000;15688.0500
3696.0000;15706.6200
3697.0000;15711.0900
3698.0000;15721.2400
3699.0000;15755.1400
3700.0000;15799.8400
3701.0000;15834.1500
3702.0000;15847.3700
3703.0000;15835.3900
3704.0000;15813.9400
3705.0000;15831.7500
3706.0000;15845.4600
3707.0000;15789.8500
3708.0000;15761.1000
3709.0000;15779.9500
3710.0000;15773.4400
3711.0000;15783.7200
3712.0000;15828.3700
3713.0000;15825.3700
3714.0000;15792.1200
3715.0000;15804.1800
3716.0000;15804.2800
3717.0000;15774.3400
3718.0000;15747.0000
3719.0000;15740.7500
3720.0000;15762.3300
3721.0000;15742.6100
3722.0000;15688.4200
3723.0000;15663.0100
3724.0000;15664.4000
3725.0000;15680.6200
3726.0000;15676.1200
3727.0000;15656.7300
3728.0000;15640.4100
3729.0000;15665.0200
3730.0000;15717.3800
3731.0000;15723.3200
3732.0000;15699.4200
3733.0000;15677.8600
3734.0000;15701.9900
3735.0000;15725.3900
3736.0000;15658.6600
3737.0000;15632.6100
3738.0000;15672.8900
3739.0000;15636.7600
3740.0000;15595.6000
3741.0000;15609.4800
3742.0000;15608.0800
3743.0000;15596.6400
3744.0000;15609.5700
3745.0000;15575.1100
3746.0000;15496.5100
3747.0000;15481.4300
3748.0000;15506.1500
3749.0000;15521.3900
3750.0000;15561.9600
3751.0000;15599.5000
3752.0000;15586.6700
3753.0000;15543.5400
3754.0000;15503.7200
3755.0000;15505.8500
3756.0000;15515.3200
3757.0000;15487.3100
3758.0000;15487.7700
3759.0000;15510.6600
3760.0000;15505.0900
3761.0000;15531.2200
3762.0000;15589.1000
3763.0000;15583.4300
3764.0000;15578.9900
3765.0000;15644.0000
3766.0000;15675.8100
3767.0000;15653.9100
3768.0000;15610.2200
3769.0000;15622.5500
3770.0000;15694.5500
3771.0000;15671.0500
3772.0000;15633.2800
3773.0000;15666.7300
3774.0000;15695.9800
3775.0000;15715.1000
3776.0000;15743.2200
3777.0000;15756.2000
3778.0000;15748.9600
3779.0000;15745.2300
3780.0000;15743.7900
3781.0000;15745.3000
3782.0000;15741.2000
3783.0000;15736.1800
3784.0000;15739.4300
3785.0000;15726.5700
3786.0000;15705.1400
3787.0000;15714.7600
3788.0000;15728.9100
3789.0000;15728.0900
3790.0000;15734.4800
3791.0000;15743.6100
3792.0000;15749.2900
3793.0000;15771.2100
3794.0000;15790.0200
3795.0000;15758.6900
3796.0000;15752.2400
3797.0000;15792.3300
3798.0000;15778.8000
3799.0000;15758.6200
3800.0000;15779.5000
3801.0000;15744.1200
3802.0000;15675.5200
3803.0000;15643.2500
3804.0000;15647.3300
3805.0000;15673.8500
3806.0000;15675.4800
3807.0000;15650.6400
3808.0000;15610.5800
3809.0000;15594.0400
3810.0000;15606.4900
3811.0000;15631.5400
3812.0000;15615.7400
3813.0000;15577.3300
3814.0000;15593.6000
3815.0000;15598.0600
3816.0000;15567.6000
3817.0000;15541.5600
3818.0000;15532.7400
3819.0000;15543.9700
3820.0000;15535.2000
3821.0000;15517.9700
3822.0000;15518.0600
3823.0000;15536.4200
3824.0000;15546.3100
3825.0000;15489.4000
3826.0000;15449.0300
3827.0000;15466.0600
3828.0000;15478.0100
3829.0000;15489.9100
3830.0000;15499.9000
3831.0000;15497.2200
3832.0000;15476.5300
3833.0000;15440.9700
3834.0000;15438.4600
3835.0000;15459.1500
3836.0000;15427.1600
3837.0000;15418.9500
3838.0000;15448.6400
3839.0000;15407.0800
3840.0000;15356.3300
3841.0000;15360.9500
3842.0000;15401.1200
3843.0000;15433.9200
3844.0000;15405.1800
3845.0000;15362.0100
3846.0000;15340.7900
3847.0000;15367.0100
3848.0000;15400.5800
3849.0000;15416.0600
3850.0000;15439.5800
3851.0000;15448.3700
3852.0000;15437.6200
3853.0000;15449.6600
3854.0000;15454.5300
3855.0000;15422.0200
3856.0000;15458.3600
3857.0000;15537.1600
3858.0000;15565.3800
3859.0000;15529.8300
3860.0000;15463.2000
3861.0000;15465.9000
3862.0000;15486.2800
3863.0000;15493.2400
3864.0000;15529.5700
3865.0000;15563.7900
3866.0000;15566.3800
3867.0000;15544.3800
3868.0000;15523.4700
3869.0000;15539.3700
3870.0000;15503.9600
3871.0000;15445.9600
3872.0000;15461.3100
3873.0000;15477.1000
3874.0000;15467.0000
3875.0000;15461.5000
3876.0000;15431.8500
3877.0000;15376.8300
3878.0000;15325.1600
3879.0000;15314.1600
3880.0000;15348.4900
3881.0000;15335.4600
3882.0000;15316.4400
3883.0000;15358.7800
3884.0000;15403.3500
3885.0000;15423.3000
3886.0000;15413.3500
3887.0000;15394.1000
3888.0000;15374.0400
3889.0000;15333.0000
3890.0000;15309.1200
3891.0000;15312.7100
3892.0000;15289.8300
3893.0000;15285.8300
3894.0000;15312.9500
3895.0000;15260.7900
3896.0000;15204.9900
3897.0000;15231.4400
3898.0000;15258.8400
3899.0000;15268.1200
3900.0000;15255.7600
3901.0000;15196.5400
3902.0000;15127.6300
3903.0000;15118.4700
3904.0000;15117.3900
3905.0000;15116.0800
3906.0000;15151.3400
3907.0000;15159.5800
3908.0000;15116.6700
3909.0000;15075.4000
3910.0000;15050.3100
3911.0000;15055.9000
3912.0000;15101.1900
3913.0000;15143.5600
3914.0000;15138.7900
3915.0000;15160.8100
3916.0000;15195.5400
3917.0000;15214.5600
3918.0000;15245.6000
3919.0000;15263.8900
3920.0000;15236.4400
3921.0000;15182.4800
3922.0000;15140.9100
3923.0000;15153.7500
3924.0000;15176.2500
3925.0000;15189.5800
3926.0000;15216.3600
3927.0000;15238.1500
3928.0000;15244.5100
3929.0000;15243.0300
3930.0000;15260.6000
3931.0000;15299.3900
3932.0000;15281.5800
3933.0000;15260.6300
3934.0000;15279.9800
3935.0000;15241.1400
3936.0000;15178.7900
3937.0000;15148.0600
3938.0000;15154.2100
3939.0000;15184.5200
3940.0000;15200.5400
3941.0000;15200.5400
3942.0000;15187.2700
3943.0000;15176.9300
3944.0000;15170.6000
3945.0000;15164.2400
3946.0000;15145.4900
3947.0000;15129.7400
3948.0000;15121.5400
3949.0000;15112.6500
3950.0000;15095.0000
3951.0000;15075.3900
3952.0000;15077.0300
3953.0000;15082.3100
3954.0000;15071.2100
3955.0000;15018.4200
3956.0000;15000.3400
3957.0000;15042.3700
3958.0000;15046.8900
3959.0000;15008.2800
3960.0000;14947.3700
3961.0000;14925.7600
3962.0000;14941.4600
3963.0000;14968.0600
3964.0000;14979.8700
3965.0000;14943.3100
3966.0000;14860.7100
3967.0000;14833.4700
3968.0000;14830.7300
3969.0000;14794.5100
3970.0000;14779.4700
3971.0000;14772.0100
3972.0000;14741.2000
3973.0000;14687.4800
3974.0000;14653.1300
3975.0000;14677.5300
3976.0000;14682.4100
3977.0000;14686.2100
3978.0000;14735.9700
3979.0000;14706.7100
3980.0000;14640.2300
3981.0000;14663.7500
3982.0000;14664.0600
3983.0000;14643.6200
3984.0000;14662.8800
3985.0000;14686.6400
3986.0000;14698.6600
3987.0000;14697.6000
3988.0000;14679.2500
3989.0000;14656.2200
3990.0000;14651.5600
3991.0000;14652.3800
3992.0000;14664.3000
3993.0000;14704.8000
3994.0000;14736.4400
3995.0000;14738.9100
3996.0000;14722.5300
3997.0000;14739.2900
3998.0000;14781.7100
3999.0000;14769.2600
4000.0000;14742.4000
4001.0000;14730.1400
4002.0000;14745.9700
4003.0000;14745.1300
4004.0000;14724.5200
4005.0000;14742.5000
4006.0000;14754.5000
4007.0000;14738.3300
4008.0000;14700.4300
4009.0000;14688.9600
4010.0000;14715.9500
4011.0000;14734.8900
4012.0000;14723.3600
4013.0000;14701.6500
4014.0000;14763.6500
4015.0000;14786.4200
4016.0000;14731.6500
4017.0000;14693.0000
4018.0000;14701.4100
4019.0000;14748.9400
4020.0000;14754.3300
4021.0000;14751.1500
4022.0000;14744.1700
4023.0000;14707.7400
4024.0000;14664.5900
4025.0000;14626.7000
4026.0000;14569.2500
4027.0000;14533.0100
4028.0000;14532.8300
4029.0000;14544.4300
4030.0000;14528.4500
4031.0000;14494.2100
4032.0000;14511.0000
4033.0000;14527.5700
4034.0000;14507.4500
4035.0000;14433.0800
4036.0000;14384.9300
4037.0000;14389.1900
4038.0000;14396.2500
4039.0000;14405.3300
4040.0000;14411.2800
4041.0000;14419.2000
4042.0000;14408.3800
4043.0000;14382.3800
4044.0000;14363.7000
4045.0000;14390.3700
4046.0000;14430.8900
4047.0000;14411.3300
4048.0000;14395.4700
4049.0000;14397.6700
4050.0000;14409.7000
4051.0000;14432.5900
4052.0000;14444.8400
4053.0000;14427.4000
4054.0000;14419.9800
4055.0000;14430.1900
4056.0000;14448.9000
4057.0000;14456.0900
4058.0000;14454.4400
4059.0000;14454.1900
4060.0000;14436.0600
4061.0000;14427.8600
4062.0000;14451.4400
4063.0000;14459.3500
4064.0000;14466.7100
4065.0000;14485.1500
4066.0000;14491.9800
4067.0000;14474.9400
4068.0000;14446.3000
4069.0000;14465.2400
4070.0000;14487.4800
4071.0000;14479.2400
4072.0000;14465.1000
4073.0000;14442.1800
4074.0000;14417.9400
4075.0000;14394.2700
4076.0000;14379.8500
4077.0000;14373.7400
4078.0000;14364.1800
4079.0000;14328.8600
4080.0000;14282.1100
4081.0000;14265.5800
4082.0000;14241.6600
4083.0000;14209.3500
4084.0000;14183.2400
4085.0000;14169.6100
4086.0000;14190.0200
4087.0000;14246.0700
4088.0000;14217.0500
4089.0000;14164.0800
4090.0000;14184.9900
4091.0000;14169.2100
4092.0000;14125.1400
4093.0000;14086.5000
4094.0000;14092.8700
4095.0000;14114.1100
4096.0000;14108.6800
4097.0000;14064.5100
4098.0000;14060.9000
4099.0000;14112.7800
4100.0000;14101.2000
4101.0000;14076.4300
4102.0000;14060.6400
4103.0000;14036.0800
4104.0000;14035.7500
4105.0000;14050.9700
4106.0000;14041.6200
4107.0000;14009.4700
4108.0000;13951.3700
4109.0000;13869.9700
4110.0000;13761.2200
4111.0000;13663.7600
4112.0000;13608.1300
4113.0000;13529.4100
4114.0000;13445.1200
4115.0000;13368.3000
4116.0000;13256.1500
4117.0000;13160.6200
4118.0000;13092.6000
4119.0000;12972.6600
4120.0000;12813.4300
4121.0000;12668.2300
4122.0000;12620.4000
4123.0000;12512.8200
4124.0000;12352.3000
4125.0000;12250.8400
4126.0000;12170.9500
4127.0000;12092.1000
4128.0000;11979.5700
4129.0000;11879.1400
4130.0000;11734.1500
4131.0000;11516.8600
4132.0000;11401.1300
4133.0000;11312.1800
4134.0000;11175.4400
4135.0000;11027.6700
4136.0000;10872.1000
4137.0000;10709.0500
4138.0000;10511.3000
4139.0000;10305.9500
4140.0000;10130.9400
4141.0000;9985.0460
4142.0000;9805.8380
4143.0000;9633.2730
4144.0000;9495.7770
4145.0000;9264.8750
4146.0000;9078.4210
4147.0000;9015.7960
4148.0000;8875.4110
4149.0000;8722.5450
4150.0000;8599.5400
4151.0000;8490.3700
4152.0000;8365.4200
4153.0000;8252.2590
4154.0000;8197.5330
4155.0000;8093.6960
4156.0000;7949.4990
4157.0000;7821.6310
4158.0000;7716.2370
4159.0000;7588.7020
4160.0000;7413.3280
4161.0000;7302.2000
4162.0000;7244.3950
4163.0000;7194.6150
4164.0000;7094.2070
4165.0000;7004.9630
4166.0000;6931.5210
4167.0000;6819.3790
4168.0000;6750.5580
4169.0000;6724.3880
4170.0000;6696.5540
4171.0000;6653.1480
4172.0000;6627.7000
4173.0000;6627.5700
4174.0000;6591.8550
4175.0000;6546.3240
4176.0000;6511.1690
4177.0000;6486.2820
4178.0000;6463.1370
4179.0000;6437.2110
4180.0000;6404.7920
4181.0000;6372.7850
4182.0000;6333.8610
4183.0000;6287.1950
4184.0000;6261.2700
4185.0000;6256.6870
4186.0000;6264.0040
4187.0000;6273.2860
4188.0000;6263.2100
4189.0000;6257.7990
4190.0000;6299.3290
4191.0000;6317.3460
4192.0000;6308.0590
4193.0000;6292.0640
4194.0000;6270.2790
4195.0000;6256.4620
4196.0000;6257.3640
4197.0000;6265.0930
4198.0000;6223.1950
4199.0000;6159.6460
4200.0000;6153.7540
4201.0000;6157.5550
4202.0000;6168.1030
4203.0000;6180.8820
4204.0000;6188.2490
4205.0000;6186.4270
4206.0000;6186.1290
4207.0000;6213.4020
4208.0000;6243.9610
4209.0000;6246.8410
4210.0000;6207.7920
4211.0000;6205.1760
4212.0000;6220.7090
4213.0000;6219.6450
4214.0000;6212.0550
4215.0000;6202.3390
4216.0000;6186.5550
4217.0000;6147.6020
4218.0000;6112.6040
4219.0000;6109.0050
4220.0000;6140.9160
4221.0000;6138.6040
4222.0000;6153.8330
4223.0000;6197.7480
4224.0000;6163.9110
4225.0000;6133.1470
4226.0000;6137.5040
4227.0000;6150.6040
4228.0000;6149.3300
4229.0000;6141.4180
4230.0000;6140.0730
4231.0000;6128.4650
4232.0000;6117.9720
4233.0000;6121.5260
4234.0000;6151.4410
4235.0000;6119.4760
4236.0000;5462.2840
4237.0000;3863.4920
4238.0000;2057.1460
