Raman Shift ; Dark Subtracted #1
98.0000;6201.0880
99.0000;6190.0440
100.0000;6168.4780
101.0000;6137.2880
102.0000;6100.1990
103.0000;6067.6530
104.0000;6046.0890
105.0000;6041.8670
106.0000;6031.1840
107.0000;5992.6250
108.0000;5946.8960
109.0000;5898.3390
110.0000;5861.4210
111.0000;5833.5930
112.0000;5816.9570
113.0000;5814.2890
114.0000;5808.6910
115.0000;5807.9180
116.0000;5805.7830
117.0000;5801.5350
118.0000;5794.8770
119.0000;5785.3620
120.0000;5773.2080
121.0000;5757.9380
122.0000;5741.0380
123.0000;5721.8260
124.0000;5700.1570
125.0000;5678.0540
126.0000;5644.3610
127.0000;5614.3960
128.0000;5596.0020
129.0000;5596.9220
130.0000;5599.7910
131.0000;5579.6700
132.0000;5556.0790
133.0000;5541.4600
134.0000;5540.0020
135.0000;5537.7740
136.0000;5525.7220
137.0000;5514.5560
138.0000;5505.2480
139.0000;5503.7030
140.0000;5511.0400
141.0000;5528.1540
142.0000;5551.9000
143.0000;5580.4320
144.0000;5607.4250
145.0000;5636.3310
146.0000;5658.8090
147.0000;5665.6370
148.0000;5655.7370
149.0000;5625.1660
150.0000;5578.2390
151.0000;5524.5690
152.0000;5480.2010
153.0000;5455.4580
154.0000;5435.4110
155.0000;5392.4580
156.0000;5350.9170
157.0000;5312.0560
158.0000;5284.8550
159.0000;5265.5530
160.0000;5252.1640
161.0000;5242.2990
162.0000;5215.5050
163.0000;5183.1230
164.0000;5151.1090
165.0000;5126.3150
166.0000;5107.1100
167.0000;5085.5900
168.0000;5071.3760
169.0000;5058.7400
170.0000;5051.0770
171.0000;5039.6550
172.0000;5019.9980
173.0000;5001.3520
174.0000;4983.2240
175.0000;4974.1540
176.0000;4973.7920
177.0000;4983.8850
178.0000;4994.2660
179.0000;4995.8440
180.0000;4990.3330
181.0000;4979.1850
182.0000;4964.7660
183.0000;4954.2000
184.0000;4951.9710
185.0000;4954.7250
186.0000;4957.2540
187.0000;4959.6400
188.0000;4957.0590
189.0000;4949.3620
190.0000;4941.5550
191.0000;4937.1040
192.0000;4934.1600
193.0000;4928.8660
194.0000;4923.7200
195.0000;4919.9720
196.0000;4918.3560
197.0000;4912.6990
198.0000;4895.7420
199.0000;4878.6460
200.0000;4871.9580
201.0000;4876.2800
202.0000;4877.1980
203.0000;4868.6140
204.0000;4859.5320
205.0000;4855.6880
206.0000;4855.5210
207.0000;4850.9940
208.0000;4844.2120
209.0000;4845.2470
210.0000;4860.5290
211.0000;4877.8040
212.0000;4879.9320
213.0000;4873.1850
214.0000;4876.4270
215.0000;4892.9860
216.0000;4909.2640
217.0000;4915.8610
218.0000;4915.4450
219.0000;4914.9050
220.0000;4913.4500
221.0000;4915.3300
222.0000;4922.2120
223.0000;4929.1170
224.0000;4931.0300
225.0000;4931.1040
226.0000;4936.9610
227.0000;4946.4800
228.0000;4950.7020
229.0000;4945.5750
230.0000;4935.6660
231.0000;4926.7900
232.0000;4920.7690
233.0000;4919.9250
234.0000;4925.4040
235.0000;4930.6790
236.0000;4930.3390
237.0000;4928.9350
238.0000;4932.9120
239.0000;4937.0580
240.0000;4932.9450
241.0000;4919.1170
242.0000;4903.8610
243.0000;4890.8650
244.0000;4887.0980
245.0000;4896.5830
246.0000;4915.7440
247.0000;4926.9120
248.0000;4922.2050
249.0000;4915.5500
250.0000;4918.5510
251.0000;4926.7130
252.0000;4937.9520
253.0000;4949.9670
254.0000;4957.9420
255.0000;4959.0290
256.0000;4957.4000
257.0000;4959.2850
258.0000;4962.8570
259.0000;4970.3720
260.0000;4980.1280
261.0000;4988.1040
262.0000;4992.0230
263.0000;4993.7920
264.0000;4998.1880
265.0000;5002.5670
266.0000;5008.6070
267.0000;5014.6620
268.0000;5016.9520
269.0000;5013.0540
270.0000;5009.7620
271.0000;5018.3050
272.0000;5029.4290
273.0000;5027.4260
274.0000;5011.8410
275.0000;4999.4150
276.0000;5001.4310
277.0000;5008.7470
278.0000;5010.1480
279.0000;5009.6930
280.0000;5011.7080
281.0000;5015.9790
282.0000;5019.3850
283.0000;5019.6680
284.0000;5019.3130
285.0000;5022.1870
286.0000;5026.2080
287.0000;5029.9840
288.0000;5032.0910
289.0000;5031.1850
290.0000;5026.1270
291.0000;5021.4140
292.0000;5022.1660
293.0000;5027.3740
294.0000;5032.1670
295.0000;5035.3480
296.0000;5038.2920
297.0000;5040.1150
298.0000;5046.0620
299.0000;5063.8690
300.0000;5086.8880
301.0000;5106.8970
302.0000;5117.9510
303.0000;5122.4420
304.0000;5122.2280
305.0000;5119.0210
306.0000;5121.0460
307.0000;5127.4280
308.0000;5139.0140
309.0000;5153.8800
310.0000;5168.8510
311.0000;5181.1210
312.0000;5187.4780
313.0000;5191.3510
314.0000;5189.4730
315.0000;5186.8480
316.0000;5184.1560
317.0000;5182.5590
318.0000;5183.0040
319.0000;5187.1510
320.0000;5196.3470
321.0000;5207.4550
322.0000;5216.1700
323.0000;5219.9910
324.0000;5222.2310
325.0000;5224.5290
326.0000;5224.8190
327.0000;5226.1140
328.0000;5224.1750
329.0000;5214.2250
330.0000;5198.7040
331.0000;5190.7470
332.0000;5196.5710
333.0000;5207.8000
334.0000;5215.5720
335.0000;5219.3670
336.0000;5215.8180
337.0000;5207.2490
338.0000;5207.1250
339.0000;5220.9700
340.0000;5237.1740
341.0000;5244.6500
342.0000;5249.5080
343.0000;5264.5700
344.0000;5283.5080
345.0000;5297.7060
346.0000;5301.4030
347.0000;5300.5770
348.0000;5304.2340
349.0000;5301.5410
350.0000;5281.4700
351.0000;5257.7730
352.0000;5260.5800
353.0000;5296.6410
354.0000;5333.3350
355.0000;5348.0790
356.0000;5350.5040
357.0000;5357.1940
358.0000;5361.6660
359.0000;5368.9650
360.0000;5377.7460
361.0000;5385.2270
362.0000;5389.3370
363.0000;5392.3060
364.0000;5398.7190
365.0000;5405.9980
366.0000;5415.6160
367.0000;5424.9880
368.0000;5434.5400
369.0000;5442.6850
370.0000;5445.6600
371.0000;5442.9170
372.0000;5435.4030
373.0000;5429.4660
374.0000;5426.3640
375.0000;5427.5400
376.0000;5433.5150
377.0000;5437.6120
378.0000;5434.5720
379.0000;5427.0070
380.0000;5415.8540
381.0000;5406.6040
382.0000;5407.0970
383.0000;5418.1380
384.0000;5424.7670
385.0000;5417.6690
386.0000;5407.7600
387.0000;5404.6020
388.0000;5407.2620
389.0000;5414.3620
390.0000;5423.7760
391.0000;5428.7560
392.0000;5425.3470
393.0000;5420.2400
394.0000;5420.2310
395.0000;5420.0350
396.0000;5413.3820
397.0000;5404.8130
398.0000;5403.3700
399.0000;5411.1430
400.0000;5420.6180
401.0000;5426.1410
402.0000;5430.2090
403.0000;5436.2620
404.0000;5440.9030
405.0000;5443.4360
406.0000;5443.5000
407.0000;5446.0400
408.0000;5452.8360
409.0000;5458.9380
410.0000;5460.8430
411.0000;5461.2200
412.0000;5466.8520
413.0000;5473.7480
414.0000;5475.9230
415.0000;5471.5750
416.0000;5466.4320
417.0000;5464.8420
418.0000;5461.0120
419.0000;5449.8030
420.0000;5435.6810
421.0000;5420.5810
422.0000;5410.1610
423.0000;5408.8100
424.0000;5418.7480
425.0000;5431.4840
426.0000;5440.2760
427.0000;5438.4120
428.0000;5417.0670
429.0000;5386.8460
430.0000;5373.7550
431.0000;5383.6040
432.0000;5392.3210
433.0000;5387.6220
434.0000;5380.2860
435.0000;5377.0510
436.0000;5374.8880
437.0000;5368.5910
438.0000;5361.8610
439.0000;5361.3500
440.0000;5368.6670
441.0000;5372.8330
442.0000;5365.7900
443.0000;5357.2610
444.0000;5356.5090
445.0000;5361.2990
446.0000;5366.0930
447.0000;5370.2010
448.0000;5373.2160
449.0000;5374.3600
450.0000;5374.4250
451.0000;5374.0860
452.0000;5375.0080
453.0000;5381.2650
454.0000;5388.8840
455.0000;5389.9260
456.0000;5384.6850
457.0000;5387.4120
458.0000;5404.2330
459.0000;5415.3980
460.0000;5402.1170
461.0000;5384.8730
462.0000;5390.8440
463.0000;5412.8400
464.0000;5429.2010
465.0000;5434.4300
466.0000;5437.4520
467.0000;5441.4260
468.0000;5446.3350
469.0000;5458.7130
470.0000;5468.7350
471.0000;5466.4860
472.0000;5457.8940
473.0000;5468.0360
474.0000;5498.6490
475.0000;5524.4780
476.0000;5529.2610
477.0000;5523.7000
478.0000;5523.3330
479.0000;5521.2850
480.0000;5517.8980
481.0000;5515.3890
482.0000;5518.6310
483.0000;5528.5940
484.0000;5539.0540
485.0000;5546.9930
486.0000;5547.6000
487.0000;5537.1510
488.0000;5522.5400
489.0000;5521.1190
490.0000;5528.6070
491.0000;5523.2750
492.0000;5503.0740
493.0000;5490.3580
494.0000;5498.7780
495.0000;5514.5000
496.0000;5521.5120
497.0000;5523.0030
498.0000;5522.2710
499.0000;5518.4390
500.0000;5513.3800
501.0000;5509.4250
502.0000;5512.8000
503.0000;5526.7790
504.0000;5543.8050
505.0000;5557.9820
506.0000;5563.4640
507.0000;5555.6440
508.0000;5540.7660
509.0000;5543.5230
510.0000;5566.5880
511.0000;5582.7420
512.0000;5575.5880
513.0000;5567.2970
514.0000;5577.5900
515.0000;5595.2870
516.0000;5610.1530
517.0000;5620.4920
518.0000;5629.1680
519.0000;5633.8740
520.0000;5638.0720
521.0000;5642.9430
522.0000;5651.2360
523.0000;5669.2890
524.0000;5683.0780
525.0000;5677.1710
526.0000;5661.2920
527.0000;5664.5930
528.0000;5686.4750
529.0000;5704.1840
530.0000;5707.8580
531.0000;5700.8910
532.0000;5686.0870
533.0000;5668.7250
534.0000;5657.4850
535.0000;5655.7280
536.0000;5660.3960
537.0000;5670.7140
538.0000;5676.9410
539.0000;5675.4090
540.0000;5668.4900
541.0000;5657.3600
542.0000;5649.1660
543.0000;5655.2040
544.0000;5660.8210
545.0000;5642.4180
546.0000;5610.0520
547.0000;5587.3600
548.0000;5581.8690
549.0000;5579.6840
550.0000;5576.4030
551.0000;5573.8980
552.0000;5569.4790
553.0000;5564.1650
554.0000;5553.9410
555.0000;5545.9290
556.0000;5547.7640
557.0000;5558.4440
558.0000;5563.9410
559.0000;5560.0090
560.0000;5555.6790
561.0000;5555.6560
562.0000;5558.4750
563.0000;5563.2450
564.0000;5569.5220
565.0000;5578.4790
566.0000;5584.2600
567.0000;5578.3400
568.0000;5560.7490
569.0000;5548.8320
570.0000;5550.2740
571.0000;5559.6180
572.0000;5573.0930
573.0000;5584.2050
574.0000;5582.1750
575.0000;5574.5800
576.0000;5581.3790
577.0000;5598.1080
578.0000;5610.3850
579.0000;5612.9500
580.0000;5610.0730
581.0000;5603.5980
582.0000;5600.2970
583.0000;5607.4640
584.0000;5620.9010
585.0000;5632.7780
586.0000;5643.8770
587.0000;5660.3360
588.0000;5676.4650
589.0000;5688.3450
590.0000;5692.4370
591.0000;5694.5990
592.0000;5699.0480
593.0000;5704.3690
594.0000;5715.1800
595.0000;5721.0370
596.0000;5710.7820
597.0000;5693.7710
598.0000;5694.5720
599.0000;5711.5710
600.0000;5714.3560
601.0000;5695.0000
602.0000;5682.4940
603.0000;5693.6010
604.0000;5704.6130
605.0000;5691.5110
606.0000;5671.0420
607.0000;5663.0210
608.0000;5665.7880
609.0000;5669.6250
610.0000;5672.6730
611.0000;5670.6560
612.0000;5660.1840
613.0000;5628.7500
614.0000;5567.8080
615.0000;5518.0470
616.0000;5508.0260
617.0000;5522.7120
618.0000;5512.0460
619.0000;5495.9300
620.0000;5497.8940
621.0000;5516.1900
622.0000;5524.4800
623.0000;5515.6310
624.0000;5507.1280
625.0000;5508.1500
626.0000;5510.6430
627.0000;5508.5790
628.0000;5506.3840
629.0000;5508.6460
630.0000;5511.5760
631.0000;5507.4100
632.0000;5498.8270
633.0000;5499.1610
634.0000;5508.8580
635.0000;5507.0040
636.0000;5483.7190
637.0000;5459.8250
638.0000;5447.2850
639.0000;5449.2370
640.0000;5464.7520
641.0000;5483.3870
642.0000;5480.6460
643.0000;5461.8970
644.0000;5455.9870
645.0000;5465.4720
646.0000;5470.3550
647.0000;5464.1510
648.0000;5452.8010
649.0000;5439.2200
650.0000;5429.3290
651.0000;5427.5390
652.0000;5432.0570
653.0000;5434.2410
654.0000;5434.3660
655.0000;5429.8260
656.0000;5421.9840
657.0000;5418.1140
658.0000;5419.5180
659.0000;5413.0000
660.0000;5393.0040
661.0000;5378.8660
662.0000;5385.1530
663.0000;5395.2240
664.0000;5386.1120
665.0000;5370.7460
666.0000;5364.4580
667.0000;5365.4770
668.0000;5362.1750
669.0000;5355.7000
670.0000;5352.6200
671.0000;5354.1170
672.0000;5346.3800
673.0000;5321.9720
674.0000;5303.7540
675.0000;5309.2800
676.0000;5324.3850
677.0000;5323.7890
678.0000;5320.0540
679.0000;5333.6030
680.0000;5352.5160
681.0000;5345.4250
682.0000;5313.7890
683.0000;5300.4040
684.0000;5318.9430
685.0000;5328.4350
686.0000;5305.6160
687.0000;5280.4310
688.0000;5278.3890
689.0000;5282.7370
690.0000;5269.3360
691.0000;5254.1540
692.0000;5254.6690
693.0000;5266.7970
694.0000;5271.0940
695.0000;5263.1690
696.0000;5242.2190
697.0000;5212.0570
698.0000;5190.4430
699.0000;5189.2520
700.0000;5196.3360
701.0000;5194.7170
702.0000;5197.3800
703.0000;5212.3670
704.0000;5229.8330
705.0000;5240.0670
706.0000;5239.1060
707.0000;5231.8920
708.0000;5219.2700
709.0000;5207.1540
710.0000;5200.8190
711.0000;5202.7040
712.0000;5213.9890
713.0000;5227.3980
714.0000;5236.4850
715.0000;5238.8690
716.0000;5236.8490
717.0000;5227.4660
718.0000;5210.9860
719.0000;5196.4760
720.0000;5195.6260
721.0000;5208.2090
722.0000;5218.8720
723.0000;5222.2330
724.0000;5216.2630
725.0000;5200.6340
726.0000;5187.0610
727.0000;5184.1800
728.0000;5190.1500
729.0000;5202.9210
730.0000;5213.9010
731.0000;5210.2360
732.0000;5198.5650
733.0000;5196.2040
734.0000;5194.1880
735.0000;5170.2400
736.0000;5134.4050
737.0000;5118.6730
738.0000;5130.5910
739.0000;5139.9950
740.0000;5135.5210
741.0000;5127.8000
742.0000;5121.3420
743.0000;5112.3750
744.0000;5097.7610
745.0000;5084.3380
746.0000;5073.1420
747.0000;5069.6090
748.0000;5073.6820
749.0000;5081.0130
750.0000;5075.0140
751.0000;5058.0400
752.0000;5043.2710
753.0000;5038.1120
754.0000;5050.1670
755.0000;5079.4380
756.0000;5098.9080
757.0000;5089.3130
758.0000;5075.1800
759.0000;5076.8330
760.0000;5087.0720
761.0000;5102.5070
762.0000;5117.3880
763.0000;5125.4890
764.0000;5122.2920
765.0000;5111.8350
766.0000;5095.9260
767.0000;5081.5420
768.0000;5074.7050
769.0000;5078.8930
770.0000;5094.4880
771.0000;5105.5670
772.0000;5103.7660
773.0000;5099.9730
774.0000;5100.8920
775.0000;5107.3940
776.0000;5121.9750
777.0000;5138.6610
778.0000;5154.5260
779.0000;5161.7150
780.0000;5156.8640
781.0000;5145.8860
782.0000;5153.6540
783.0000;5174.2800
784.0000;5184.6120
785.0000;5180.4130
786.0000;5176.6700
787.0000;5176.5930
788.0000;5173.1270
789.0000;5164.6610
790.0000;5158.8850
791.0000;5159.8180
792.0000;5169.8910
793.0000;5192.0830
794.0000;5207.8040
795.0000;5195.8190
796.0000;5173.6000
797.0000;5177.3530
798.0000;5192.2880
799.0000;5187.7320
800.0000;5166.6020
801.0000;5144.0840
802.0000;5126.7580
803.0000;5116.5640
804.0000;5117.6160
805.0000;5128.3610
806.0000;5146.3390
807.0000;5154.6030
808.0000;5142.1140
809.0000;5131.1650
810.0000;5142.4050
811.0000;5153.0000
812.0000;5141.7540
813.0000;5123.7160
814.0000;5115.1520
815.0000;5114.7250
816.0000;5116.9620
817.0000;5119.8290
818.0000;5112.8930
819.0000;5099.3540
820.0000;5090.3840
821.0000;5088.9440
822.0000;5085.3250
823.0000;5079.6050
824.0000;5080.1310
825.0000;5089.5550
826.0000;5094.5740
827.0000;5087.1690
828.0000;5080.6110
829.0000;5085.0100
830.0000;5090.0890
831.0000;5085.6070
832.0000;5081.0320
833.0000;5085.3870
834.0000;5095.3250
835.0000;5105.9270
836.0000;5115.0230
837.0000;5124.0610
838.0000;5128.5660
839.0000;5124.0440
840.0000;5115.2640
841.0000;5127.5440
842.0000;5159.4930
843.0000;5181.2030
844.0000;5179.4630
845.0000;5169.7940
846.0000;5159.5270
847.0000;5154.9120
848.0000;5162.4920
849.0000;5172.3950
850.0000;5174.4030
851.0000;5178.9990
852.0000;5196.7530
853.0000;5214.6230
854.0000;5223.9420
855.0000;5223.0650
856.0000;5216.7700
857.0000;5211.3800
858.0000;5226.1700
859.0000;5250.4230
860.0000;5253.0130
861.0000;5237.2480
862.0000;5239.7820
863.0000;5259.7480
864.0000;5266.1280
865.0000;5252.9490
866.0000;5254.2230
867.0000;5279.4310
868.0000;5293.1600
869.0000;5278.7190
870.0000;5265.2680
871.0000;5270.4220
872.0000;5283.7670
873.0000;5298.8340
874.0000;5309.4440
875.0000;5311.7840
876.0000;5302.2910
877.0000;5284.0050
878.0000;5264.0110
879.0000;5252.8860
880.0000;5251.6610
881.0000;5247.8290
882.0000;5247.2400
883.0000;5252.5890
884.0000;5262.9380
885.0000;5274.8300
886.0000;5282.0650
887.0000;5274.5370
888.0000;5252.7300
889.0000;5237.4870
890.0000;5237.1350
891.0000;5241.1000
892.0000;5245.3740
893.0000;5242.7800
894.0000;5229.1350
895.0000;5217.3750
896.0000;5216.1560
897.0000;5216.8720
898.0000;5210.7500
899.0000;5209.8410
900.0000;5222.3260
901.0000;5236.7670
902.0000;5243.2550
903.0000;5238.4420
904.0000;5220.1160
905.0000;5202.6080
906.0000;5210.1240
907.0000;5229.2530
908.0000;5224.3910
909.0000;5207.0680
910.0000;5205.1520
911.0000;5221.6740
912.0000;5255.0830
913.0000;5290.9560
914.0000;5299.7590
915.0000;5274.7580
916.0000;5253.3020
917.0000;5247.1500
918.0000;5256.7650
919.0000;5280.4910
920.0000;5288.4560
921.0000;5266.3510
922.0000;5246.6980
923.0000;5246.5420
924.0000;5260.1550
925.0000;5284.3230
926.0000;5303.9320
927.0000;5304.7460
928.0000;5292.4170
929.0000;5275.2290
930.0000;5264.5500
931.0000;5275.5090
932.0000;5295.7000
933.0000;5305.7240
934.0000;5307.2880
935.0000;5305.8490
936.0000;5299.4410
937.0000;5292.1570
938.0000;5287.4320
939.0000;5289.3160
940.0000;5297.9580
941.0000;5306.2910
942.0000;5315.1230
943.0000;5333.9980
944.0000;5352.5470
945.0000;5351.4920
946.0000;5330.7580
947.0000;5321.3590
948.0000;5327.3000
949.0000;5330.1390
950.0000;5325.9470
951.0000;5314.8800
952.0000;5299.5400
953.0000;5294.9160
954.0000;5306.2300
955.0000;5311.2600
956.0000;5299.9840
957.0000;5282.6290
958.0000;5265.7030
959.0000;5257.2150
960.0000;5263.0390
961.0000;5267.3640
962.0000;5256.1190
963.0000;5247.3070
964.0000;5253.4180
965.0000;5262.8390
966.0000;5265.8570
967.0000;5261.3130
968.0000;5246.0990
969.0000;5233.1670
970.0000;5237.4600
971.0000;5249.7050
972.0000;5252.6890
973.0000;5252.4360
974.0000;5257.7190
975.0000;5261.2740
976.0000;5255.2750
977.0000;5245.1480
978.0000;5242.7000
979.0000;5246.1400
980.0000;5249.7850
981.0000;5248.6950
982.0000;5231.4440
983.0000;5206.8280
984.0000;5196.3240
985.0000;5201.9910
986.0000;5202.8910
987.0000;5203.4360
988.0000;5221.6710
989.0000;5249.2580
990.0000;5252.1900
991.0000;5227.2340
992.0000;5210.5450
993.0000;5211.5100
994.0000;5218.2100
995.0000;5227.5670
996.0000;5230.5510
997.0000;5225.0520
998.0000;5227.6920
999.0000;5242.7340
1000.0000;5259.2490
1001.0000;5269.9940
1002.0000;5271.2940
1003.0000;5262.1190
1004.0000;5271.7940
1005.0000;5313.2830
1006.0000;5328.9620
1007.0000;5292.3930
1008.0000;5248.6060
1009.0000;5226.8060
1010.0000;5222.9320
1011.0000;5235.5920
1012.0000;5246.6330
1013.0000;5236.0290
1014.0000;5231.9150
1015.0000;5252.1670
1016.0000;5274.0020
1017.0000;5280.1050
1018.0000;5274.0030
1019.0000;5261.5350
1020.0000;5242.6170
1021.0000;5220.6310
1022.0000;5204.9360
1023.0000;5201.2430
1024.0000;5205.7140
1025.0000;5204.7640
1026.0000;5206.7170
1027.0000;5218.6770
1028.0000;5221.6280
1029.0000;5191.3640
1030.0000;5161.8000
1031.0000;5171.2630
1032.0000;5197.7770
1033.0000;5208.6600
1034.0000;5204.3640
1035.0000;5183.2530
1036.0000;5162.5680
1037.0000;5170.9480
1038.0000;5190.4410
1039.0000;5186.4650
1040.0000;5171.2500
1041.0000;5163.7490
1042.0000;5161.4290
1043.0000;5161.6690
1044.0000;5159.6080
1045.0000;5138.6250
1046.0000;5118.6190
1047.0000;5126.1170
1048.0000;5153.3300
1049.0000;5173.8540
1050.0000;5183.0770
1051.0000;5182.7660
1052.0000;5168.1320
1053.0000;5141.6180
1054.0000;5116.1690
1055.0000;5110.5020
1056.0000;5123.7300
1057.0000;5134.7600
1058.0000;5141.8540
1059.0000;5141.0790
1060.0000;5136.0670
1061.0000;5143.8790
1062.0000;5154.2870
1063.0000;5141.6140
1064.0000;5118.3160
1065.0000;5119.9180
1066.0000;5137.9860
1067.0000;5136.2600
1068.0000;5122.7300
1069.0000;5124.9680
1070.0000;5138.4590
1071.0000;5142.3630
1072.0000;5142.6950
1073.0000;5159.9370
1074.0000;5186.2190
1075.0000;5205.3860
1076.0000;5216.4750
1077.0000;5243.6850
1078.0000;5270.7040
1079.0000;5271.6530
1080.0000;5251.3540
1081.0000;5249.1690
1082.0000;5263.1850
1083.0000;5277.8870
1084.0000;5288.9920
1085.0000;5293.7600
1086.0000;5291.3680
1087.0000;5294.5080
1088.0000;5297.0840
1089.0000;5282.0180
1090.0000;5262.7600
1091.0000;5271.7700
1092.0000;5301.5930
1093.0000;5318.6050
1094.0000;5321.3590
1095.0000;5327.8160
1096.0000;5329.4590
1097.0000;5316.4550
1098.0000;5294.7700
1099.0000;5279.9690
1100.0000;5276.0000
1101.0000;5272.7700
1102.0000;5278.4410
1103.0000;5299.6840
1104.0000;5327.7960
1105.0000;5348.0250
1106.0000;5351.5660
1107.0000;5339.9070
1108.0000;5322.1050
1109.0000;5327.7460
1110.0000;5347.3370
1111.0000;5353.3710
1112.0000;5346.8910
1113.0000;5334.3910
1114.0000;5322.9910
1115.0000;5325.2050
1116.0000;5337.1630
1117.0000;5345.3560
1118.0000;5345.6830
1119.0000;5335.2350
1120.0000;5316.9340
1121.0000;5297.7230
1122.0000;5285.4680
1123.0000;5279.4920
1124.0000;5285.6710
1125.0000;5298.9070
1126.0000;5314.7190
1127.0000;5321.0020
1128.0000;5323.5820
1129.0000;5339.5310
1130.0000;5351.5000
1131.0000;5342.2860
1132.0000;5329.8290
1133.0000;5344.0930
1134.0000;5361.8070
1135.0000;5357.8250
1136.0000;5349.2280
1137.0000;5354.7770
1138.0000;5367.4520
1139.0000;5380.0130
1140.0000;5399.0950
1141.0000;5431.3080
1142.0000;5457.3260
1143.0000;5464.2370
1144.0000;5457.7600
1145.0000;5450.0580
1146.0000;5447.6460
1147.0000;5460.5480
1148.0000;5472.0920
1149.0000;5467.8550
1150.0000;5471.0070
1151.0000;5496.3670
1152.0000;5518.8630
1153.0000;5522.4770
1154.0000;5533.0240
1155.0000;5564.1330
1156.0000;5591.1400
1157.0000;5601.0620
1158.0000;5603.1110
1159.0000;5602.2920
1160.0000;5607.5830
1161.0000;5623.7260
1162.0000;5640.8780
1163.0000;5654.3520
1164.0000;5677.0570
1165.0000;5706.9010
1166.0000;5728.3290
1167.0000;5733.9980
1168.0000;5734.7880
1169.0000;5733.9370
1170.0000;5741.9800
1171.0000;5758.9030
1172.0000;5773.1960
1173.0000;5782.5340
1174.0000;5801.7590
1175.0000;5823.7780
1176.0000;5833.8760
1177.0000;5830.2590
1178.0000;5830.9720
1179.0000;5838.3260
1180.0000;5857.1170
1181.0000;5882.4420
1182.0000;5907.1800
1183.0000;5925.3650
1184.0000;5947.1450
1185.0000;5957.9190
1186.0000;5950.6690
1187.0000;5935.4560
1188.0000;5941.9690
1189.0000;5954.9520
1190.0000;5950.2900
1191.0000;5944.5790
1192.0000;5957.7910
1193.0000;5977.3470
1194.0000;5989.0630
1195.0000;5996.5280
1196.0000;6006.1030
1197.0000;6011.5000
1198.0000;6013.1920
1199.0000;6008.5280
1200.0000;5997.6170
1201.0000;6001.4280
1202.0000;6034.3740
1203.0000;6054.0680
1204.0000;6037.6320
1205.0000;6022.7190
1206.0000;6028.9360
1207.0000;6043.4320
1208.0000;6060.2990
1209.0000;6063.2530
1210.0000;6049.3970
1211.0000;6054.4200
1212.0000;6080.4880
1213.0000;6081.2570
1214.0000;6055.0910
1215.0000;6052.4040
1216.0000;6073.5050
1217.0000;6073.9720
1218.0000;6059.6960
1219.0000;6072.0520
1220.0000;6095.4500
1221.0000;6080.6190
1222.0000;6047.4070
1223.0000;6050.1010
1224.0000;6073.4930
1225.0000;6080.8210
1226.0000;6076.0580
1227.0000;6062.6800
1228.0000;6055.2140
1229.0000;6075.7710
1230.0000;6100.7970
1231.0000;6101.0260
1232.0000;6097.4590
1233.0000;6111.8330
1234.0000;6117.2680
1235.0000;6099.0160
1236.0000;6080.8970
1237.0000;6079.6980
1238.0000;6085.8310
1239.0000;6094.3750
1240.0000;6105.9160
1241.0000;6116.0680
1242.0000;6114.0150
1243.0000;6097.4750
1244.0000;6084.1590
1245.0000;6081.2710
1246.0000;6088.9320
1247.0000;6103.3020
1248.0000;6107.1290
1249.0000;6097.6760
1250.0000;6082.4670
1251.0000;6067.8040
1252.0000;6060.2620
1253.0000;6067.4190
1254.0000;6093.1960
1255.0000;6117.5340
1256.0000;6106.3240
1257.0000;6081.4420
1258.0000;6078.7750
1259.0000;6090.7350
1260.0000;6110.6540
1261.0000;6123.6110
1262.0000;6114.5100
1263.0000;6107.0380
1264.0000;6118.8630
1265.0000;6115.3400
1266.0000;6082.6220
1267.0000;6075.1610
1268.0000;6111.9650
1269.0000;6132.6810
1270.0000;6116.6820
1271.0000;6092.8910
1272.0000;6071.8270
1273.0000;6062.9350
1274.0000;6071.2510
1275.0000;6086.3000
1276.0000;6100.4340
1277.0000;6097.5890
1278.0000;6083.4400
1279.0000;6078.7270
1280.0000;6083.2950
1281.0000;6093.0360
1282.0000;6106.0830
1283.0000;6119.1620
1284.0000;6126.4030
1285.0000;6125.4580
1286.0000;6123.0460
1287.0000;6127.9550
1288.0000;6130.6040
1289.0000;6126.9870
1290.0000;6140.2650
1291.0000;6177.9900
1292.0000;6216.0020
1293.0000;6240.3680
1294.0000;6257.8450
1295.0000;6260.4180
1296.0000;6241.3970
1297.0000;6209.6240
1298.0000;6196.1120
1299.0000;6208.4560
1300.0000;6235.4880
1301.0000;6265.1350
1302.0000;6268.7550
1303.0000;6264.2560
1304.0000;6289.3070
1305.0000;6322.2990
1306.0000;6343.8350
1307.0000;6364.1060
1308.0000;6394.4350
1309.0000;6417.5250
1310.0000;6427.6090
1311.0000;6437.0330
1312.0000;6453.0970
1313.0000;6480.0780
1314.0000;6514.0770
1315.0000;6533.1900
1316.0000;6533.2500
1317.0000;6547.0710
1318.0000;6569.8510
1319.0000;6581.7020
1320.0000;6587.6570
1321.0000;6612.8810
1322.0000;6648.7140
1323.0000;6699.0000
1324.0000;6729.0480
1325.0000;6711.8590
1326.0000;6700.3000
1327.0000;6755.4230
1328.0000;6809.0740
1329.0000;6820.3330
1330.0000;6824.4390
1331.0000;6836.5700
1332.0000;6846.9060
1333.0000;6855.2710
1334.0000;6878.5230
1335.0000;6912.8150
1336.0000;6947.7730
1337.0000;6970.6760
1338.0000;6982.2160
1339.0000;6985.0830
1340.0000;7009.9350
1341.0000;7038.8000
1342.0000;7053.6330
1343.0000;7064.7380
1344.0000;7093.2700
1345.0000;7118.0030
1346.0000;7128.4370
1347.0000;7131.6050
1348.0000;7133.6640
1349.0000;7139.2390
1350.0000;7151.0620
1351.0000;7166.4270
1352.0000;7181.6780
1353.0000;7198.0310
1354.0000;7208.2790
1355.0000;7210.9410
1356.0000;7200.6500
1357.0000;7178.0570
1358.0000;7156.7000
1359.0000;7151.8160
1360.0000;7163.9850
1361.0000;7181.1790
1362.0000;7206.7600
1363.0000;7237.1880
1364.0000;7259.4150
1365.0000;7264.9920
1366.0000;7255.0100
1367.0000;7233.4520
1368.0000;7215.2110
1369.0000;7211.5680
1370.0000;7232.4480
1371.0000;7265.1400
1372.0000;7270.8260
1373.0000;7249.4360
1374.0000;7220.7440
1375.0000;7202.8700
1376.0000;7221.1060
1377.0000;7241.9180
1378.0000;7227.9570
1379.0000;7208.0610
1380.0000;7199.5690
1381.0000;7180.3440
1382.0000;7150.4050
1383.0000;7138.4220
1384.0000;7152.1630
1385.0000;7167.9740
1386.0000;7176.9220
1387.0000;7174.6930
1388.0000;7155.1450
1389.0000;7118.8960
1390.0000;7077.4110
1391.0000;7045.3420
1392.0000;7022.8910
1393.0000;7000.1050
1394.0000;6981.8300
1395.0000;6964.5240
1396.0000;6946.3070
1397.0000;6927.5230
1398.0000;6916.8530
1399.0000;6912.1300
1400.0000;6881.5420
1401.0000;6838.6030
1402.0000;6817.9540
1403.0000;6821.6460
1404.0000;6827.6320
1405.0000;6827.4020
1406.0000;6798.3790
1407.0000;6776.4240
1408.0000;6790.7780
1409.0000;6801.3470
1410.0000;6787.2220
1411.0000;6761.9820
1412.0000;6736.2900
1413.0000;6728.5350
1414.0000;6736.3100
1415.0000;6715.1940
1416.0000;6680.9110
1417.0000;6671.1280
1418.0000;6672.5460
1419.0000;6654.0750
1420.0000;6630.7200
1421.0000;6610.6020
1422.0000;6591.5000
1423.0000;6572.6400
1424.0000;6569.6260
1425.0000;6584.1020
1426.0000;6585.0520
1427.0000;6570.9590
1428.0000;6570.3250
1429.0000;6572.8990
1430.0000;6546.2800
1431.0000;6511.5790
1432.0000;6496.3350
1433.0000;6493.9490
1434.0000;6490.4740
1435.0000;6489.7540
1436.0000;6488.9470
1437.0000;6483.8890
1438.0000;6473.5300
1439.0000;6461.6470
1440.0000;6450.7870
1441.0000;6437.7870
1442.0000;6425.8090
1443.0000;6412.3800
1444.0000;6400.2430
1445.0000;6386.7580
1446.0000;6367.9180
1447.0000;6336.7700
1448.0000;6322.3300
1449.0000;6336.8750
1450.0000;6337.9560
1451.0000;6315.9060
1452.0000;6308.8200
1453.0000;6311.8180
1454.0000;6285.5640
1455.0000;6250.9790
1456.0000;6241.4390
1457.0000;6248.3950
1458.0000;6250.1790
1459.0000;6249.0640
1460.0000;6242.1680
1461.0000;6224.1410
1462.0000;6197.5130
1463.0000;6182.8740
1464.0000;6184.6490
1465.0000;6182.7810
1466.0000;6173.9920
1467.0000;6148.9630
1468.0000;6125.2390
1469.0000;6121.1930
1470.0000;6127.5490
1471.0000;6130.0120
1472.0000;6127.6460
1473.0000;6117.8890
1474.0000;6100.1270
1475.0000;6080.3250
1476.0000;6074.6840
1477.0000;6080.6330
1478.0000;6070.1770
1479.0000;6057.4640
1480.0000;6059.8210
1481.0000;6069.7510
1482.0000;6077.5520
1483.0000;6078.5820
1484.0000;6070.1560
1485.0000;6065.5510
1486.0000;6067.3300
1487.0000;6060.9710
1488.0000;6049.9150
1489.0000;6048.6570
1490.0000;6049.3110
1491.0000;6031.9840
1492.0000;6020.7630
1493.0000;6034.0040
1494.0000;6044.9040
1495.0000;6038.4420
1496.0000;6033.3490
1497.0000;6033.6790
1498.0000;6031.5310
1499.0000;6027.4230
1500.0000;6019.0930
1501.0000;6021.0830
1502.0000;6052.0060
1503.0000;6081.5570
1504.0000;6082.7830
1505.0000;6070.4100
1506.0000;6054.0790
1507.0000;6032.2150
1508.0000;6011.6800
1509.0000;5993.0210
1510.0000;5988.8020
1511.0000;6010.6830
1512.0000;6032.3280
1513.0000;6011.8080
1514.0000;5990.7480
1515.0000;6000.1590
1516.0000;6014.2400
1517.0000;6021.1910
1518.0000;6020.8670
1519.0000;6012.6560
1520.0000;6004.1760
1521.0000;5997.9800
1522.0000;5990.9230
1523.0000;5996.9710
1524.0000;6024.1420
1525.0000;6047.5400
1526.0000;6049.8310
1527.0000;6044.0150
1528.0000;6033.9380
1529.0000;6022.3190
1530.0000;6014.7450
1531.0000;6015.2480
1532.0000;6020.8590
1533.0000;6022.2930
1534.0000;6017.3400
1535.0000;6004.2760
1536.0000;6005.5310
1537.0000;6026.8850
1538.0000;6045.7430
1539.0000;6052.9270
1540.0000;6050.7920
1541.0000;6039.6850
1542.0000;6028.7470
1543.0000;6026.9790
1544.0000;6041.0090
1545.0000;6059.5080
1546.0000;6072.8470
1547.0000;6083.7470
1548.0000;6085.7590
1549.0000;6065.9530
1550.0000;6043.4740
1551.0000;6061.0240
1552.0000;6081.0880
1553.0000;6056.7880
1554.0000;6040.5190
1555.0000;6059.6860
1556.0000;6080.9930
1557.0000;6094.6830
1558.0000;6114.0230
1559.0000;6122.8560
1560.0000;6100.1080
1561.0000;6074.0140
1562.0000;6083.4550
1563.0000;6097.7170
1564.0000;6095.4630
1565.0000;6086.4570
1566.0000;6075.6920
1567.0000;6073.9210
1568.0000;6078.0060
1569.0000;6071.1780
1570.0000;6057.8440
1571.0000;6044.1260
1572.0000;6029.3730
1573.0000;6016.7810
1574.0000;6039.0350
1575.0000;6088.8210
1576.0000;6089.0300
1577.0000;6050.9870
1578.0000;6049.6420
1579.0000;6056.8840
1580.0000;6040.3630
1581.0000;6014.0750
1582.0000;5988.5830
1583.0000;5973.2010
1584.0000;5973.2250
1585.0000;5969.4640
1586.0000;5962.1080
1587.0000;5949.5190
1588.0000;5937.0150
1589.0000;5929.2350
1590.0000;5913.8750
1591.0000;5887.2570
1592.0000;5870.8910
1593.0000;5869.4110
1594.0000;5857.9710
1595.0000;5841.9000
1596.0000;5825.1250
1597.0000;5814.5580
1598.0000;5812.9000
1599.0000;5804.0350
1600.0000;5781.9130
1601.0000;5764.7360
1602.0000;5753.8540
1603.0000;5725.3280
1604.0000;5695.6960
1605.0000;5681.2030
1606.0000;5670.2540
1607.0000;5649.1490
1608.0000;5631.1960
1609.0000;5623.0570
1610.0000;5624.5060
1611.0000;5626.7160
1612.0000;5600.3490
1613.0000;5567.5870
1614.0000;5556.3900
1615.0000;5542.3020
1616.0000;5514.1150
1617.0000;5497.3520
1618.0000;5498.0120
1619.0000;5493.3020
1620.0000;5485.9000
1621.0000;5477.0630
1622.0000;5466.9140
1623.0000;5454.9620
1624.0000;5448.5180
1625.0000;5448.8010
1626.0000;5435.9410
1627.0000;5418.1530
1628.0000;5421.9990
1629.0000;5426.7900
1630.0000;5400.7140
1631.0000;5370.8690
1632.0000;5355.9300
1633.0000;5357.6150
1634.0000;5373.6640
1635.0000;5381.9500
1636.0000;5377.7590
1637.0000;5363.0340
1638.0000;5346.1700
1639.0000;5338.7650
1640.0000;5336.9290
1641.0000;5340.5380
1642.0000;5351.5700
1643.0000;5362.6290
1644.0000;5360.0860
1645.0000;5352.7310
1646.0000;5355.1130
1647.0000;5353.0940
1648.0000;5343.0500
1649.0000;5345.2370
1650.0000;5358.5010
1651.0000;5361.7620
1652.0000;5358.5010
1653.0000;5356.7730
1654.0000;5362.6210
1655.0000;5379.2740
1656.0000;5392.6460
1657.0000;5398.2360
1658.0000;5404.9940
1659.0000;5416.8360
1660.0000;5448.0350
1661.0000;5472.2990
1662.0000;5471.7630
1663.0000;5469.2070
1664.0000;5470.8940
1665.0000;5465.3880
1666.0000;5457.3780
1667.0000;5458.1190
1668.0000;5461.6560
1669.0000;5460.0610
1670.0000;5470.4660
1671.0000;5491.4650
1672.0000;5485.2290
1673.0000;5460.9010
1674.0000;5464.0430
1675.0000;5480.6220
1676.0000;5491.6620
1677.0000;5485.3240
1678.0000;5461.3240
1679.0000;5463.3960
1680.0000;5487.7920
1681.0000;5495.1860
1682.0000;5486.5610
1683.0000;5469.2870
1684.0000;5448.8590
1685.0000;5434.2230
1686.0000;5426.3130
1687.0000;5428.9300
1688.0000;5437.3260
1689.0000;5444.5700
1690.0000;5440.7750
1691.0000;5427.6260
1692.0000;5409.1200
1693.0000;5387.1810
1694.0000;5370.1310
1695.0000;5359.7190
1696.0000;5361.4690
1697.0000;5370.6940
1698.0000;5367.7230
1699.0000;5343.8420
1700.0000;5331.8340
1701.0000;5332.8790
1702.0000;5314.3620
1703.0000;5296.7400
1704.0000;5300.8360
1705.0000;5302.0370
1706.0000;5289.0910
1707.0000;5282.1950
1708.0000;5283.4250
1709.0000;5282.8240
1710.0000;5276.4970
1711.0000;5258.4630
1712.0000;5250.4910
1713.0000;5259.6870
1714.0000;5254.2030
1715.0000;5237.9620
1716.0000;5234.2190
1717.0000;5232.0380
1718.0000;5217.9210
1719.0000;5199.3090
1720.0000;5185.1830
1721.0000;5201.1880
1722.0000;5226.6050
1723.0000;5201.1490
1724.0000;5166.0810
1725.0000;5163.8600
1726.0000;5161.6360
1727.0000;5153.4690
1728.0000;5154.3450
1729.0000;5160.5460
1730.0000;5160.7390
1731.0000;5147.7060
1732.0000;5120.9100
1733.0000;5118.6220
1734.0000;5141.4870
1735.0000;5130.8030
1736.0000;5100.6270
1737.0000;5082.8050
1738.0000;5074.1050
1739.0000;5073.0580
1740.0000;5071.3430
1741.0000;5068.5900
1742.0000;5068.3490
1743.0000;5066.8570
1744.0000;5059.0660
1745.0000;5050.3590
1746.0000;5044.3570
1747.0000;5041.1900
1748.0000;5034.8130
1749.0000;5007.2870
1750.0000;4977.9380
1751.0000;4964.0710
1752.0000;4962.4670
1753.0000;4967.2870
1754.0000;4951.4950
1755.0000;4927.6020
1756.0000;4920.9000
1757.0000;4907.4130
1758.0000;4875.2710
1759.0000;4850.7230
1760.0000;4842.6910
1761.0000;4835.4860
1762.0000;4830.4990
1763.0000;4821.5720
1764.0000;4799.9910
1765.0000;4767.8100
1766.0000;4741.4140
1767.0000;4734.8000
1768.0000;4747.8460
1769.0000;4761.2520
1770.0000;4751.0790
1771.0000;4733.4780
1772.0000;4714.9530
1773.0000;4695.5050
1774.0000;4679.7570
1775.0000;4664.0380
1776.0000;4659.0920
1777.0000;4663.0090
1778.0000;4644.9390
1779.0000;4607.9350
1780.0000;4569.0490
1781.0000;4547.6830
1782.0000;4552.7760
1783.0000;4547.2080
1784.0000;4527.8870
1785.0000;4532.9200
1786.0000;4546.7080
1787.0000;4539.1170
1788.0000;4509.9770
1789.0000;4470.5120
1790.0000;4463.3790
1791.0000;4480.8070
1792.0000;4462.0510
1793.0000;4435.8290
1794.0000;4425.2880
1795.0000;4413.2390
1796.0000;4399.6280
1797.0000;4385.3880
1798.0000;4373.0480
1799.0000;4358.2190
1800.0000;4346.4660
1801.0000;4339.1070
1802.0000;4329.5680
1803.0000;4318.8570
1804.0000;4305.6670
1805.0000;4289.5470
1806.0000;4270.0600
1807.0000;4260.9760
1808.0000;4266.1090
1809.0000;4273.3460
1810.0000;4277.4190
1811.0000;4271.4720
1812.0000;4257.7970
1813.0000;4242.5600
1814.0000;4236.8020
1815.0000;4237.3230
1816.0000;4229.4110
1817.0000;4222.9400
1818.0000;4220.6780
1819.0000;4208.3070
1820.0000;4189.7800
1821.0000;4174.9140
1822.0000;4167.6630
1823.0000;4167.0970
1824.0000;4172.4010
1825.0000;4178.1440
1826.0000;4173.5690
1827.0000;4159.7500
1828.0000;4142.0220
1829.0000;4120.3310
1830.0000;4101.0570
1831.0000;4090.2910
1832.0000;4084.6220
1833.0000;4066.3660
1834.0000;4051.3590
1835.0000;4046.8070
1836.0000;4043.3290
1837.0000;4041.4750
1838.0000;4038.5940
1839.0000;4038.0140
1840.0000;4039.8690
1841.0000;4036.5520
1842.0000;4028.5910
1843.0000;4025.7710
1844.0000;4010.7060
1845.0000;3971.6580
1846.0000;3962.8400
1847.0000;3988.5780
1848.0000;3993.8020
1849.0000;3983.4540
1850.0000;3968.0150
1851.0000;3951.8310
1852.0000;3941.9020
1853.0000;3940.4830
1854.0000;3941.3030
1855.0000;3928.5910
1856.0000;3920.6760
1857.0000;3922.2530
1858.0000;3905.5810
1859.0000;3883.6600
1860.0000;3881.3760
1861.0000;3879.4290
1862.0000;3865.8650
1863.0000;3847.9310
1864.0000;3835.0300
1865.0000;3835.8360
1866.0000;3838.8010
1867.0000;3831.9440
1868.0000;3822.5970
1869.0000;3812.3840
1870.0000;3798.9010
1871.0000;3789.4150
1872.0000;3787.3610
1873.0000;3782.5370
1874.0000;3774.8590
1875.0000;3766.8300
1876.0000;3765.5230
1877.0000;3773.5330
1878.0000;3768.3300
1879.0000;3749.6490
1880.0000;3740.0790
1881.0000;3733.3570
1882.0000;3721.1830
1883.0000;3709.7290
1884.0000;3706.7760
1885.0000;3722.9690
1886.0000;3739.8770
1887.0000;3733.7820
1888.0000;3734.6780
1889.0000;3744.1910
1890.0000;3731.5550
1891.0000;3714.3220
1892.0000;3716.3940
1893.0000;3713.5200
1894.0000;3702.6710
1895.0000;3705.1970
1896.0000;3705.3790
1897.0000;3682.2400
1898.0000;3665.1290
1899.0000;3663.8920
1900.0000;3656.1850
1901.0000;3648.4000
1902.0000;3644.8820
1903.0000;3641.9700
1904.0000;3642.1540
1905.0000;3664.1050
1906.0000;3671.1610
1907.0000;3622.7110
1908.0000;3595.7900
1909.0000;3614.1300
1910.0000;3618.7620
1911.0000;3617.2190
1912.0000;3619.3950
1913.0000;3608.1210
1914.0000;3584.8250
1915.0000;3575.2300
1916.0000;3570.1350
1917.0000;3552.7010
1918.0000;3548.4610
1919.0000;3558.2930
1920.0000;3546.4560
1921.0000;3530.8250
1922.0000;3531.8060
1923.0000;3538.9700
1924.0000;3541.2190
1925.0000;3519.2050
1926.0000;3486.2040
1927.0000;3461.6210
1928.0000;3448.3960
1929.0000;3448.4950
1930.0000;3446.6650
1931.0000;3443.2370
1932.0000;3435.3530
1933.0000;3436.7260
1934.0000;3441.9170
1935.0000;3423.6780
1936.0000;3407.1460
1937.0000;3412.5490
1938.0000;3421.1710
1939.0000;3422.8000
1940.0000;3404.7640
1941.0000;3386.6800
1942.0000;3385.9260
1943.0000;3391.5100
1944.0000;3397.6720
1945.0000;3396.8480
1946.0000;3373.0020
1947.0000;3330.7870
1948.0000;3328.3840
1949.0000;3348.0300
1950.0000;3329.2800
1951.0000;3305.1930
1952.0000;3290.3170
1953.0000;3271.4830
1954.0000;3255.7780
1955.0000;3243.9670
1956.0000;3239.8460
1957.0000;3242.0160
1958.0000;3240.9700
1959.0000;3233.2520
1960.0000;3216.6250
1961.0000;3214.2750
1962.0000;3224.8130
1963.0000;3212.7700
1964.0000;3198.4900
1965.0000;3199.2540
1966.0000;3194.9530
1967.0000;3184.2000
1968.0000;3171.2550
1969.0000;3163.7480
1970.0000;3165.5460
1971.0000;3172.0800
1972.0000;3176.6670
1973.0000;3168.2120
1974.0000;3168.8650
1975.0000;3181.6560
1976.0000;3161.3040
1977.0000;3128.1930
1978.0000;3119.2600
1979.0000;3121.8280
1980.0000;3126.5460
1981.0000;3109.9160
1982.0000;3102.6530
1983.0000;3131.2370
1984.0000;3119.1500
1985.0000;3072.8310
1986.0000;3067.1040
1987.0000;3071.5850
1988.0000;3061.0480
1989.0000;3041.5110
1990.0000;3023.3940
1991.0000;3018.9380
1992.0000;3019.3180
1993.0000;3017.9250
1994.0000;3016.1390
1995.0000;3015.0950
1996.0000;3015.5990
1997.0000;3006.3600
1998.0000;2988.9510
1999.0000;2979.0860
2000.0000;2971.6770
2001.0000;2961.4790
2002.0000;2963.3810
2003.0000;2966.2330
2004.0000;2935.6570
2005.0000;2918.1990
2006.0000;2934.6000
2007.0000;2932.1280
2008.0000;2922.3070
2009.0000;2928.2160
2010.0000;2927.2200
2011.0000;2918.9830
2012.0000;2931.9020
2013.0000;2938.7310
2014.0000;2917.8270
2015.0000;2901.3000
2016.0000;2896.0810
2017.0000;2894.3480
2018.0000;2888.7940
2019.0000;2877.1790
2020.0000;2879.8700
2021.0000;2891.7220
2022.0000;2898.6380
2023.0000;2888.2280
2024.0000;2865.7570
2025.0000;2863.9860
2026.0000;2859.5010
2027.0000;2835.2540
2028.0000;2819.9480
2029.0000;2821.2430
2030.0000;2832.0300
2031.0000;2835.8250
2032.0000;2824.1830
2033.0000;2807.7220
2034.0000;2798.1890
2035.0000;2804.5240
2036.0000;2793.4270
2037.0000;2768.6540
2038.0000;2758.7120
2039.0000;2759.1280
2040.0000;2761.9580
2041.0000;2751.7650
2042.0000;2736.1650
2043.0000;2728.6180
2044.0000;2732.8020
2045.0000;2744.6950
2046.0000;2749.4220
2047.0000;2738.2330
2048.0000;2711.1860
2049.0000;2690.2950
2050.0000;2683.1580
2051.0000;2684.5090
2052.0000;2683.1510
2053.0000;2674.9730
2054.0000;2669.5480
2055.0000;2670.0030
2056.0000;2675.6930
2057.0000;2679.1160
2058.0000;2678.1810
2059.0000;2675.9240
2060.0000;2666.7960
2061.0000;2652.7220
2062.0000;2642.2630
2063.0000;2641.7510
2064.0000;2650.8180
2065.0000;2647.2890
2066.0000;2632.8050
2067.0000;2624.3860
2068.0000;2613.5620
2069.0000;2603.1340
2070.0000;2615.1470
2071.0000;2628.6430
2072.0000;2618.2420
2073.0000;2608.7730
2074.0000;2607.3520
2075.0000;2613.1360
2076.0000;2616.4740
2077.0000;2610.8970
2078.0000;2599.0010
2079.0000;2586.7940
2080.0000;2581.7410
2081.0000;2580.8150
2082.0000;2583.7610
2083.0000;2587.4810
2084.0000;2587.8150
2085.0000;2583.7040
2086.0000;2581.9450
2087.0000;2581.9690
2088.0000;2581.6420
2089.0000;2566.5670
2090.0000;2553.7830
2091.0000;2575.8110
2092.0000;2575.8070
2093.0000;2538.4880
2094.0000;2507.3130
2095.0000;2501.5710
2096.0000;2525.3190
2097.0000;2530.1350
2098.0000;2518.7710
2099.0000;2515.1120
2100.0000;2503.9710
2101.0000;2490.6660
2102.0000;2496.0300
2103.0000;2505.8550
2104.0000;2504.7140
2105.0000;2489.3960
2106.0000;2467.9300
2107.0000;2454.3910
2108.0000;2465.0300
2109.0000;2490.3280
2110.0000;2492.4820
2111.0000;2489.7150
2112.0000;2491.0440
2113.0000;2486.0620
2114.0000;2476.5680
2115.0000;2466.6960
2116.0000;2456.1330
2117.0000;2447.5630
2118.0000;2439.8890
2119.0000;2437.7140
2120.0000;2438.6380
2121.0000;2428.7410
2122.0000;2419.6030
2123.0000;2418.1090
2124.0000;2405.3610
2125.0000;2395.3250
2126.0000;2404.6290
2127.0000;2401.7650
2128.0000;2386.7140
2129.0000;2380.4000
2130.0000;2378.8590
2131.0000;2378.2110
2132.0000;2370.8420
2133.0000;2360.1030
2134.0000;2351.4240
2135.0000;2357.1500
2136.0000;2366.1780
2137.0000;2356.2650
2138.0000;2352.0990
2139.0000;2353.6570
2140.0000;2336.4150
2141.0000;2325.5540
2142.0000;2330.3730
2143.0000;2322.9570
2144.0000;2312.3290
2145.0000;2307.8220
2146.0000;2308.0720
2147.0000;2313.2740
2148.0000;2320.7660
2149.0000;2310.5250
2150.0000;2288.0180
2151.0000;2281.8490
2152.0000;2282.0880
2153.0000;2282.2770
2154.0000;2285.8940
2155.0000;2289.0260
2156.0000;2287.4650
2157.0000;2285.2840
2158.0000;2280.0700
2159.0000;2269.2510
2160.0000;2271.2590
2161.0000;2279.1060
2162.0000;2259.2990
2163.0000;2244.9560
2164.0000;2252.5610
2165.0000;2268.0600
2166.0000;2279.0480
2167.0000;2274.8170
2168.0000;2269.5720
2169.0000;2268.2130
2170.0000;2274.2710
2171.0000;2272.9870
2172.0000;2266.8630
2173.0000;2268.9650
2174.0000;2269.3890
2175.0000;2265.2760
2176.0000;2262.2650
2177.0000;2249.4690
2178.0000;2228.7010
2179.0000;2231.0960
2180.0000;2234.4420
2181.0000;2216.3020
2182.0000;2212.0540
2183.0000;2219.1960
2184.0000;2220.9980
2185.0000;2226.7850
2186.0000;2233.7620
2187.0000;2236.0470
2188.0000;2227.7410
2189.0000;2211.4880
2190.0000;2196.0840
2191.0000;2192.3880
2192.0000;2201.3050
2193.0000;2203.3730
2194.0000;2201.3480
2195.0000;2199.4180
2196.0000;2193.4260
2197.0000;2185.9170
2198.0000;2181.2960
2199.0000;2185.9120
2200.0000;2191.1060
2201.0000;2177.5860
2202.0000;2167.8520
2203.0000;2168.9960
2204.0000;2169.7200
2205.0000;2165.7210
2206.0000;2156.2950
2207.0000;2151.3950
2208.0000;2149.4120
2209.0000;2148.4480
2210.0000;2154.8830
2211.0000;2154.3770
2212.0000;2135.2510
2213.0000;2135.3680
2214.0000;2143.7970
2215.0000;2130.7810
2216.0000;2120.0280
2217.0000;2120.4780
2218.0000;2131.2460
2219.0000;2137.8390
2220.0000;2132.4800
2221.0000;2120.9350
2222.0000;2111.0670
2223.0000;2107.2350
2224.0000;2095.3400
2225.0000;2088.9930
2226.0000;2094.0980
2227.0000;2093.7910
2228.0000;2085.8490
2229.0000;2071.8620
2230.0000;2053.7250
2231.0000;2051.4970
2232.0000;2078.8690
2233.0000;2084.9440
2234.0000;2071.7780
2235.0000;2071.7860
2236.0000;2079.0780
2237.0000;2079.9380
2238.0000;2049.8540
2239.0000;2032.1100
2240.0000;2039.2920
2241.0000;2037.5680
2242.0000;2041.3840
2243.0000;2049.3240
2244.0000;2039.7430
2245.0000;2039.6120
2246.0000;2059.2160
2247.0000;2056.7550
2248.0000;2048.4480
2249.0000;2050.0910
2250.0000;2036.4440
2251.0000;2020.7960
2252.0000;2018.8480
2253.0000;2019.6550
2254.0000;2025.6450
2255.0000;2036.8130
2256.0000;2032.1310
2257.0000;2020.5250
2258.0000;2026.5400
2259.0000;2016.4440
2260.0000;1999.5620
2261.0000;2010.0360
2262.0000;2015.3590
2263.0000;2010.3110
2264.0000;2015.9630
2265.0000;2009.4090
2266.0000;1992.8510
2267.0000;1994.7740
2268.0000;1997.7640
2269.0000;1993.2480
2270.0000;1989.1260
2271.0000;1985.7710
2272.0000;1984.2060
2273.0000;1985.5260
2274.0000;1984.4510
2275.0000;1980.3330
2276.0000;1991.5970
2277.0000;1996.4710
2278.0000;1979.7060
2279.0000;1969.5200
2280.0000;1963.2810
2281.0000;1957.3720
2282.0000;1968.1160
2283.0000;1971.0070
2284.0000;1942.7660
2285.0000;1930.6520
2286.0000;1939.4840
2287.0000;1955.7580
2288.0000;1963.7020
2289.0000;1955.7600
2290.0000;1936.5970
2291.0000;1937.5760
2292.0000;1948.0610
2293.0000;1937.1730
2294.0000;1922.8650
2295.0000;1916.1590
2296.0000;1923.6070
2297.0000;1914.5260
2298.0000;1895.8420
2299.0000;1897.0150
2300.0000;1908.3900
2301.0000;1915.5530
2302.0000;1901.0480
2303.0000;1890.6730
2304.0000;1892.9470
2305.0000;1899.2030
2306.0000;1890.6260
2307.0000;1875.1750
2308.0000;1887.5950
2309.0000;1891.6880
2310.0000;1877.7910
2311.0000;1865.8530
2312.0000;1856.6370
2313.0000;1849.2670
2314.0000;1831.7870
2315.0000;1830.1570
2316.0000;1842.8640
2317.0000;1835.6370
2318.0000;1819.8990
2319.0000;1808.4660
2320.0000;1811.8150
2321.0000;1818.5240
2322.0000;1819.9090
2323.0000;1816.8580
2324.0000;1811.5560
2325.0000;1807.6470
2326.0000;1806.5620
2327.0000;1803.9650
2328.0000;1798.5080
2329.0000;1793.3690
2330.0000;1785.5280
2331.0000;1778.2480
2332.0000;1781.4220
2333.0000;1776.6350
2334.0000;1763.0910
2335.0000;1765.7540
2336.0000;1764.4810
2337.0000;1755.5830
2338.0000;1759.1110
2339.0000;1763.6500
2340.0000;1762.4760
2341.0000;1756.8670
2342.0000;1748.7290
2343.0000;1744.8400
2344.0000;1753.3300
2345.0000;1760.0260
2346.0000;1754.9180
2347.0000;1737.2800
2348.0000;1728.8480
2349.0000;1732.4110
2350.0000;1723.0230
2351.0000;1724.0100
2352.0000;1731.4360
2353.0000;1718.1970
2354.0000;1699.8470
2355.0000;1688.5780
2356.0000;1689.9480
2357.0000;1681.0300
2358.0000;1664.8310
2359.0000;1662.3320
2360.0000;1656.5480
2361.0000;1650.4330
2362.0000;1655.8180
2363.0000;1647.5200
2364.0000;1628.6320
2365.0000;1617.3180
2366.0000;1606.4790
2367.0000;1595.2510
2368.0000;1581.9610
2369.0000;1583.9110
2370.0000;1591.3860
2371.0000;1584.7040
2372.0000;1584.7010
2373.0000;1588.9230
2374.0000;1587.9410
2375.0000;1567.5800
2376.0000;1550.1500
2377.0000;1556.5420
2378.0000;1546.8280
2379.0000;1536.0850
2380.0000;1539.1550
2381.0000;1536.5310
2382.0000;1531.3970
2383.0000;1528.3030
2384.0000;1531.1990
2385.0000;1534.5330
2386.0000;1535.4250
2387.0000;1545.5100
2388.0000;1549.4050
2389.0000;1541.4000
2390.0000;1535.3810
2391.0000;1532.8730
2392.0000;1536.2230
2393.0000;1546.3750
2394.0000;1546.8270
2395.0000;1537.0440
2396.0000;1535.2710
2397.0000;1534.8230
2398.0000;1536.4430
2399.0000;1543.2100
2400.0000;1538.5500
2401.0000;1531.8580
2402.0000;1544.0160
2403.0000;1560.3370
2404.0000;1563.8940
2405.0000;1545.6780
2406.0000;1543.5690
2407.0000;1551.6890
2408.0000;1555.3220
2409.0000;1565.5760
2410.0000;1575.6990
2411.0000;1578.3050
2412.0000;1572.6480
2413.0000;1567.6930
2414.0000;1567.7640
2415.0000;1554.4680
2416.0000;1550.5470
2417.0000;1557.6040
2418.0000;1543.3800
2419.0000;1538.7400
2420.0000;1547.7420
2421.0000;1549.7320
2422.0000;1540.2270
2423.0000;1527.8140
2424.0000;1528.7240
2425.0000;1538.8590
2426.0000;1545.4620
2427.0000;1536.2520
2428.0000;1531.3260
2429.0000;1532.0440
2430.0000;1534.9380
2431.0000;1538.6460
2432.0000;1535.9000
2433.0000;1524.0950
2434.0000;1508.8610
2435.0000;1503.6760
2436.0000;1507.8590
2437.0000;1495.8230
2438.0000;1491.5970
2439.0000;1498.2540
2440.0000;1497.8010
2441.0000;1498.1140
2442.0000;1496.9570
2443.0000;1489.8850
2444.0000;1480.2660
2445.0000;1481.1580
2446.0000;1498.1460
2447.0000;1500.6240
2448.0000;1491.1880
2449.0000;1482.3250
2450.0000;1485.7300
2451.0000;1484.7210
2452.0000;1476.1140
2453.0000;1486.4370
2454.0000;1487.9310
2455.0000;1476.1150
2456.0000;1470.6750
2457.0000;1473.9510
2458.0000;1473.1790
2459.0000;1452.5270
2460.0000;1458.5140
2461.0000;1470.7890
2462.0000;1460.6410
2463.0000;1459.5170
2464.0000;1459.0930
2465.0000;1456.2650
2466.0000;1467.7890
2467.0000;1468.7510
2468.0000;1455.5420
2469.0000;1453.9700
2470.0000;1457.8850
2471.0000;1459.7290
2472.0000;1451.3110
2473.0000;1441.4080
2474.0000;1432.4440
2475.0000;1427.6030
2476.0000;1442.8370
2477.0000;1454.1240
2478.0000;1442.7140
2479.0000;1428.2850
2480.0000;1421.9680
2481.0000;1425.2070
2482.0000;1420.1920
2483.0000;1425.8850
2484.0000;1433.6590
2485.0000;1424.5080
2486.0000;1429.9400
2487.0000;1434.6420
2488.0000;1422.2060
2489.0000;1423.1510
2490.0000;1422.2060
2491.0000;1412.6170
2492.0000;1411.9650
2493.0000;1410.6180
2494.0000;1405.3380
2495.0000;1398.9100
2496.0000;1400.0190
2497.0000;1406.0510
2498.0000;1408.2710
2499.0000;1408.2300
2500.0000;1403.3220
2501.0000;1393.8560
2502.0000;1379.4290
2503.0000;1382.3140
2504.0000;1396.2050
2505.0000;1381.9460
2506.0000;1379.5360
2507.0000;1389.0640
2508.0000;1390.6100
2509.0000;1378.5040
2510.0000;1363.6510
2511.0000;1358.9260
2512.0000;1353.9270
2513.0000;1354.6200
2514.0000;1353.9740
2515.0000;1333.2400
2516.0000;1329.3900
2517.0000;1339.9800
2518.0000;1339.7980
2519.0000;1339.6140
2520.0000;1332.5970
2521.0000;1319.7900
2522.0000;1324.1990
2523.0000;1316.2510
2524.0000;1297.1600
2525.0000;1305.1430
2526.0000;1306.5500
2527.0000;1304.8310
2528.0000;1313.2490
2529.0000;1302.7680
2530.0000;1285.6120
2531.0000;1278.7000
2532.0000;1281.2240
2533.0000;1291.0800
2534.0000;1298.6110
2535.0000;1294.9750
2536.0000;1293.1880
2537.0000;1295.1210
2538.0000;1297.3020
2539.0000;1291.6220
2540.0000;1288.4490
2541.0000;1288.9020
2542.0000;1274.3050
2543.0000;1269.0690
2544.0000;1277.1110
2545.0000;1285.1980
2546.0000;1282.5170
2547.0000;1278.5640
2548.0000;1282.5680
2549.0000;1281.1820
2550.0000;1277.0980
2551.0000;1271.9100
2552.0000;1265.8070
2553.0000;1270.2930
2554.0000;1275.4080
2555.0000;1267.3280
2556.0000;1258.1290
2557.0000;1254.3020
2558.0000;1260.0410
2559.0000;1273.7640
2560.0000;1269.8070
2561.0000;1251.5100
2562.0000;1241.1940
2563.0000;1242.7760
2564.0000;1244.2410
2565.0000;1240.0730
2566.0000;1251.9670
2567.0000;1255.8550
2568.0000;1247.3130
2569.0000;1238.7790
2570.0000;1231.2320
2571.0000;1236.8540
2572.0000;1253.6000
2573.0000;1250.1690
2574.0000;1244.0060
2575.0000;1238.1680
2576.0000;1222.4220
2577.0000;1211.8800
2578.0000;1210.9830
2579.0000;1216.7220
2580.0000;1221.1970
2581.0000;1225.8650
2582.0000;1229.3950
2583.0000;1229.6720
2584.0000;1219.8520
2585.0000;1214.7690
2586.0000;1223.4430
2587.0000;1213.3150
2588.0000;1199.7390
2589.0000;1195.4430
2590.0000;1202.4030
2591.0000;1194.3330
2592.0000;1187.5030
2593.0000;1196.0060
2594.0000;1179.4880
2595.0000;1167.7050
2596.0000;1172.5580
2597.0000;1178.6830
2598.0000;1171.5120
2599.0000;1160.0320
2600.0000;1157.0240
2601.0000;1153.6320
2602.0000;1153.7210
2603.0000;1159.5170
2604.0000;1170.4080
2605.0000;1163.7430
2606.0000;1156.5360
2607.0000;1162.3780
2608.0000;1154.1930
2609.0000;1150.5020
2610.0000;1151.3340
2611.0000;1144.9990
2612.0000;1143.2150
2613.0000;1139.6710
2614.0000;1131.9210
2615.0000;1130.0370
2616.0000;1133.7570
2617.0000;1135.4290
2618.0000;1128.5560
2619.0000;1135.6420
2620.0000;1138.3760
2621.0000;1126.6400
2622.0000;1113.0370
2623.0000;1107.1780
2624.0000;1111.0750
2625.0000;1115.1590
2626.0000;1098.8090
2627.0000;1095.4010
2628.0000;1102.5180
2629.0000;1081.7760
2630.0000;1072.9410
2631.0000;1075.3400
2632.0000;1075.1540
2633.0000;1056.1870
2634.0000;1048.9970
2635.0000;1059.7920
2636.0000;1071.9790
2637.0000;1073.1160
2638.0000;1057.5580
2639.0000;1039.5710
2640.0000;1045.3780
2641.0000;1032.4090
2642.0000;1017.7080
2643.0000;1023.6550
2644.0000;1016.7870
2645.0000;1013.2340
2646.0000;1016.7690
2647.0000;1019.2420
2648.0000;1001.4670
2649.0000;986.6754
2650.0000;990.2084
2651.0000;992.9672
2652.0000;996.8682
2653.0000;992.3009
2654.0000;977.4307
2655.0000;979.3204
2656.0000;986.8045
2657.0000;987.4376
2658.0000;976.1544
2659.0000;969.3153
2660.0000;965.4740
2661.0000;962.0016
2662.0000;959.6337
2663.0000;953.9724
2664.0000;943.5651
2665.0000;933.8364
2666.0000;940.0865
2667.0000;943.1501
2668.0000;939.6960
2669.0000;941.0690
2670.0000;940.3737
2671.0000;929.2865
2672.0000;912.7089
2673.0000;908.4633
2674.0000;913.3631
2675.0000;918.3666
2676.0000;913.1248
2677.0000;896.9952
2678.0000;894.1111
2679.0000;899.2622
2680.0000;894.0723
2681.0000;886.6766
2682.0000;885.1105
2683.0000;888.1135
2684.0000;885.5411
2685.0000;876.4335
2686.0000;867.6829
2687.0000;863.1486
2688.0000;856.8879
2689.0000;855.3817
2690.0000;858.4157
2691.0000;859.6818
2692.0000;850.6255
2693.0000;827.9327
2694.0000;811.6681
2695.0000;818.5022
2696.0000;819.4786
2697.0000;811.0317
2698.0000;804.9141
2699.0000;816.4710
2700.0000;809.5016
2701.0000;798.2427
2702.0000;791.8467
2703.0000;782.8278
2704.0000;773.7334
2705.0000;779.9252
2706.0000;795.6766
2707.0000;786.4685
2708.0000;774.9413
2709.0000;766.0793
2710.0000;763.1767
2711.0000;774.7991
2712.0000;776.4864
2713.0000;770.1902
2714.0000;770.4000
2715.0000;776.0225
2716.0000;778.2743
2717.0000;774.2559
2718.0000;769.0237
2719.0000;770.3263
2720.0000;776.2181
2721.0000;778.6840
2722.0000;771.3240
2723.0000;768.6783
2724.0000;765.7729
2725.0000;768.0559
2726.0000;787.0644
2727.0000;782.7031
2728.0000;769.2049
2729.0000;766.4148
2730.0000;775.6871
2731.0000;781.2336
2732.0000;789.6060
2733.0000;796.4223
2734.0000;777.6426
2735.0000;780.6662
2736.0000;785.4544
2737.0000;773.6554
2738.0000;778.5334
2739.0000;785.0716
2740.0000;791.8793
2741.0000;796.7534
2742.0000;789.1144
2743.0000;776.8167
2744.0000;770.6708
2745.0000;774.2665
2746.0000;774.3011
2747.0000;770.1561
2748.0000;765.7514
2749.0000;766.3569
2750.0000;769.7891
2751.0000;766.1816
2752.0000;758.9138
2753.0000;757.7011
2754.0000;760.6620
2755.0000;759.0222
2756.0000;760.2661
2757.0000;770.1000
2758.0000;753.5203
2759.0000;760.6524
2760.0000;780.9429
2761.0000;778.0000
2762.0000;777.9086
2763.0000;775.8274
2764.0000;780.2225
2765.0000;792.3000
2766.0000;777.3586
2767.0000;762.7996
2768.0000;762.3148
2769.0000;771.0000
2770.0000;772.5046
2771.0000;779.9268
2772.0000;782.0988
2773.0000;769.9715
2774.0000;778.9908
2775.0000;774.7531
2776.0000;766.8488
2777.0000;775.8535
2778.0000;777.5918
2779.0000;780.2653
2780.0000;781.7849
2781.0000;778.2879
2782.0000;772.1849
2783.0000;776.2426
2784.0000;781.5796
2785.0000;775.3453
2786.0000;765.0316
2787.0000;771.8039
2788.0000;779.5713
2789.0000;772.6841
2790.0000;774.0178
2791.0000;771.7923
2792.0000;765.4318
2793.0000;760.2474
2794.0000;762.9028
2795.0000;756.5275
2796.0000;754.3084
2797.0000;759.3322
2798.0000;751.1878
2799.0000;750.0496
2800.0000;762.0524
2801.0000;770.1573
2802.0000;748.0576
2803.0000;739.8060
2804.0000;730.7971
2805.0000;721.7500
2806.0000;727.2773
2807.0000;729.8645
2808.0000;729.1840
2809.0000;725.0125
2810.0000;719.5452
2811.0000;718.8461
2812.0000;717.6857
2813.0000;716.9986
2814.0000;720.0572
2815.0000;724.5779
2816.0000;721.0676
2817.0000;711.5659
2818.0000;704.7680
2819.0000;705.3140
2820.0000;703.9047
2821.0000;700.8225
2822.0000;697.4255
2823.0000;693.2974
2824.0000;699.8872
2825.0000;706.7280
2826.0000;698.9696
2827.0000;676.3591
2828.0000;681.0060
2829.0000;671.1747
2830.0000;663.2558
2831.0000;690.8221
2832.0000;675.4040
2833.0000;665.9864
2834.0000;665.5117
2835.0000;659.4289
2836.0000;657.4195
2837.0000;643.2483
2838.0000;637.0574
2839.0000;646.5867
2840.0000;645.0974
2841.0000;646.5507
2842.0000;638.4380
2843.0000;627.2308
2844.0000;631.7055
2845.0000;632.4992
2846.0000;630.0914
2847.0000;623.8699
2848.0000;617.4189
2849.0000;620.9698
2850.0000;620.3939
2851.0000;615.6299
2852.0000;609.8045
2853.0000;600.7153
2854.0000;595.4008
2855.0000;594.8963
2856.0000;596.6771
2857.0000;597.8322
2858.0000;600.5814
2859.0000;603.0043
2860.0000;597.6563
2861.0000;585.9208
2862.0000;590.0771
2863.0000;594.5684
2864.0000;591.4770
2865.0000;586.2061
2866.0000;593.9468
2867.0000;594.3381
2868.0000;592.1376
2869.0000;594.5881
2870.0000;599.5194
2871.0000;581.9108
2872.0000;580.1420
2873.0000;589.6031
2874.0000;589.9825
2875.0000;582.5317
2876.0000;599.9125
2877.0000;609.5440
2878.0000;606.4734
2879.0000;618.3297
2880.0000;605.3644
2881.0000;602.1744
2882.0000;600.5869
2883.0000;586.7487
2884.0000;590.8129
2885.0000;596.2960
2886.0000;592.5599
2887.0000;586.3908
2888.0000;594.5621
2889.0000;591.7609
2890.0000;594.5037
2891.0000;598.8669
2892.0000;593.5687
2893.0000;583.7014
2894.0000;577.9141
2895.0000;585.2358
2896.0000;595.2556
2897.0000;589.2469
2898.0000;589.3461
2899.0000;584.4483
2900.0000;583.7821
2901.0000;591.0994
2902.0000;583.0098
2903.0000;579.5198
2904.0000;588.2492
2905.0000;592.8467
2906.0000;574.4504
2907.0000;570.9787
2908.0000;572.0017
2909.0000;561.1709
2910.0000;544.7709
2911.0000;557.1546
2912.0000;563.1193
2913.0000;564.6784
2914.0000;559.6669
2915.0000;551.7466
2916.0000;563.9691
2917.0000;557.5073
2918.0000;550.8948
2919.0000;549.4919
2920.0000;532.3716
2921.0000;532.7150
2922.0000;541.5530
2923.0000;541.9532
2924.0000;532.3887
2925.0000;535.9929
2926.0000;537.9236
2927.0000;528.6531
2928.0000;522.3420
2929.0000;531.9965
2930.0000;523.5828
2931.0000;516.2590
2932.0000;520.4575
2933.0000;527.1708
2934.0000;518.2000
2935.0000;515.7521
2936.0000;501.7944
2937.0000;495.3472
2938.0000;503.8839
2939.0000;497.3801
2940.0000;488.3966
2941.0000;485.2048
2942.0000;489.0627
2943.0000;492.0825
2944.0000;485.5827
2945.0000;480.2737
2946.0000;469.8366
2947.0000;467.0786
2948.0000;481.3463
2949.0000;473.0535
2950.0000;468.8750
2951.0000;463.8754
2952.0000;458.7314
2953.0000;460.7366
2954.0000;448.5928
2955.0000;453.1016
2956.0000;455.9859
2957.0000;442.3283
2958.0000;432.2932
2959.0000;445.9179
2960.0000;447.2653
2961.0000;444.8215
2962.0000;451.2409
2963.0000;451.0130
2964.0000;453.8080
2965.0000;444.2929
2966.0000;439.5647
2967.0000;446.5693
2968.0000;433.8050
2969.0000;433.4658
2970.0000;434.3508
2971.0000;434.6474
2972.0000;432.9176
2973.0000;418.7912
2974.0000;422.3204
2975.0000;423.0039
2976.0000;424.6010
2977.0000;431.4609
2978.0000;417.0309
2979.0000;421.1478
2980.0000;429.5630
2981.0000;425.9358
2982.0000;417.9855
2983.0000;435.9356
2984.0000;435.6544
2985.0000;434.9845
2986.0000;431.9319
2987.0000;424.0017
2988.0000;439.3550
2989.0000;428.4143
2990.0000;426.3365
2991.0000;427.8892
2992.0000;416.9333
2993.0000;420.9297
2994.0000;422.5050
2995.0000;416.0521
2996.0000;415.7908
2997.0000;425.9043
2998.0000;418.4967
2999.0000;415.7663
3000.0000;410.4781
3001.0000;405.6241
3002.0000;405.5180
3003.0000;405.0842
3004.0000;399.3281
3005.0000;402.3464
3006.0000;412.7723
3007.0000;413.5695
3008.0000;394.3000
3009.0000;391.7271
3010.0000;386.0482
3011.0000;388.1969
3012.0000;390.3123
3013.0000;371.8077
3014.0000;386.9883
3015.0000;389.5453
3016.0000;382.5716
3017.0000;380.4810
3018.0000;383.9524
3019.0000;377.0698
3020.0000;361.5909
3021.0000;361.5621
3022.0000;375.0573
3023.0000;378.0853
3024.0000;365.2795
3025.0000;373.2445
3026.0000;371.1935
3027.0000;364.7588
3028.0000;364.2212
3029.0000;351.5112
3030.0000;349.2624
3031.0000;354.5122
3032.0000;350.0974
3033.0000;338.9684
3034.0000;343.2113
3035.0000;343.6463
3036.0000;346.3048
3037.0000;337.0130
3038.0000;329.1221
3039.0000;337.8498
3040.0000;328.5456
3041.0000;322.8632
3042.0000;326.4212
3043.0000;326.0006
3044.0000;319.3139
3045.0000;326.4000
3046.0000;318.6237
3047.0000;305.1515
3048.0000;302.6307
3049.0000;308.5929
3050.0000;305.2814
3051.0000;298.0670
3052.0000;304.6538
3053.0000;298.7563
3054.0000;291.6896
3055.0000;296.5002
3056.0000;283.7194
3057.0000;281.7601
3058.0000;283.2138
3059.0000;285.9062
3060.0000;284.0641
3061.0000;273.5515
3062.0000;267.7179
3063.0000;268.7427
3064.0000;280.2184
3065.0000;279.2303
3066.0000;262.7010
3067.0000;270.6534
3068.0000;270.6308
3069.0000;268.6552
3070.0000;264.8602
3071.0000;264.7850
3072.0000;268.4934
3073.0000;256.1356
3074.0000;254.0403
3075.0000;249.4878
3076.0000;247.7322
3077.0000;251.7862
3078.0000;248.0617
3079.0000;236.3817
3080.0000;236.2095
3081.0000;237.4884
3082.0000;237.8968
3083.0000;238.2079
3084.0000;228.8000
3085.0000;229.0016
3086.0000;225.6203
3087.0000;218.6942
3088.0000;220.7428
3089.0000;235.4072
3090.0000;239.5183
3091.0000;233.9918
3092.0000;221.9117
3093.0000;221.0402
3094.0000;227.9706
3095.0000;223.6360
3096.0000;225.5194
3097.0000;221.0281
3098.0000;212.9354
3099.0000;210.9522
3100.0000;213.1417
3101.0000;211.1407
3102.0000;227.8250
3103.0000;225.2951
3104.0000;216.9335
3105.0000;208.1078
3106.0000;206.0732
3107.0000;222.4720
3108.0000;220.5489
3109.0000;206.6955
3110.0000;202.8211
3111.0000;210.5691
3112.0000;213.8505
3113.0000;209.6715
3114.0000;219.9778
3115.0000;219.4451
3116.0000;202.8300
3117.0000;200.7105
3118.0000;225.3186
3119.0000;235.8374
3120.0000;227.0653
3121.0000;222.8320
3122.0000;226.5188
3123.0000;231.6376
3124.0000;231.6590
3125.0000;226.3744
3126.0000;218.4848
3127.0000;225.2762
3128.0000;230.0952
3129.0000;228.6814
3130.0000;227.1731
3131.0000;226.1223
3132.0000;227.7656
3133.0000;236.8852
3134.0000;233.4572
3135.0000;226.9841
3136.0000;229.9369
3137.0000;232.5040
3138.0000;230.9644
3139.0000;239.3851
3140.0000;239.4380
3141.0000;241.4503
3142.0000;240.9080
3143.0000;229.7463
3144.0000;249.5382
3145.0000;250.6721
3146.0000;236.1412
3147.0000;229.6034
3148.0000;234.3775
3149.0000;235.6572
3150.0000;234.2146
3151.0000;236.9336
3152.0000;241.1900
3153.0000;242.5223
3154.0000;237.1466
3155.0000;229.5664
3156.0000;228.9185
3157.0000;232.4516
3158.0000;230.7247
3159.0000;230.0662
3160.0000;233.3103
3161.0000;235.3934
3162.0000;234.5513
3163.0000;239.4259
3164.0000;236.0568
3165.0000;229.1286
3166.0000;230.2803
3167.0000;238.6587
3168.0000;237.7198
3169.0000;224.4182
3170.0000;235.5678
3171.0000;221.8958
3172.0000;225.6523
3173.0000;222.3899
3174.0000;215.9306
3175.0000;231.3738
3176.0000;230.0841
3177.0000;234.3508
3178.0000;223.3495
3179.0000;215.5781
3180.0000;216.0776
3181.0000;219.8149
3182.0000;225.1294
3183.0000;226.6859
3184.0000;229.2946
3185.0000;228.6289
3186.0000;229.2678
3187.0000;232.3911
3188.0000;231.3857
3189.0000;225.4359
3190.0000;231.5831
3191.0000;225.1013
3192.0000;223.8157
3193.0000;223.4256
3194.0000;217.3001
3195.0000;215.7635
3196.0000;228.0718
3197.0000;225.0272
3198.0000;227.7008
3199.0000;230.5195
3200.0000;229.1457
3201.0000;230.9145
3202.0000;236.5428
3203.0000;230.1101
3204.0000;224.9027
3205.0000;227.7204
3206.0000;229.1450
3207.0000;220.2197
3208.0000;218.7942
3209.0000;236.6755
3210.0000;243.4915
3211.0000;237.0053
3212.0000;230.6328
3213.0000;239.2498
3214.0000;239.3943
3215.0000;231.7855
3216.0000;234.5994
3217.0000;234.8966
3218.0000;225.9974
3219.0000;236.0710
3220.0000;231.6250
3221.0000;229.4928
3222.0000;230.8814
3223.0000;230.8103
3224.0000;242.4409
3225.0000;243.7267
3226.0000;262.5778
3227.0000;240.0892
3228.0000;229.8854
3229.0000;241.7068
3230.0000;243.8442
3231.0000;237.7788
3232.0000;243.0453
3233.0000;236.0892
3234.0000;241.7693
3235.0000;236.4289
3236.0000;230.9375
3237.0000;237.6876
3238.0000;241.8418
3239.0000;230.0254
3240.0000;218.5675
3241.0000;227.4440
3242.0000;229.6953
3243.0000;236.4626
3244.0000;230.7441
3245.0000;220.9167
3246.0000;234.8472
3247.0000;221.3956
3248.0000;226.2881
3249.0000;222.2691
3250.0000;225.6225
3251.0000;223.6999
3252.0000;225.2964
3253.0000;229.1661
3254.0000;210.1778
3255.0000;219.2256
3256.0000;212.6138
3257.0000;205.2475
3258.0000;207.6842
3259.0000;207.9135
3260.0000;200.5353
3261.0000;194.1384
3262.0000;193.2815
3263.0000;204.3532
3264.0000;195.7052
3265.0000;192.1728
3266.0000;188.1938
3267.0000;184.6146
3268.0000;182.0388
3269.0000;172.0560
3270.0000;160.1015
3271.0000;176.0136
3272.0000;163.2482
3273.0000;160.3266
3274.0000;159.5476
3275.0000;157.6303
3276.0000;152.7203
3277.0000;146.1096
3278.0000;147.6201
3279.0000;142.4734
3280.0000;130.5660
3281.0000;136.7611
3282.0000;138.4962
3283.0000;145.2092
3284.0000;140.1393
3285.0000;122.1699
3286.0000;133.3525
3287.0000;134.6361
3288.0000;122.3497
3289.0000;130.4520
3290.0000;130.5746
3291.0000;123.5087
3292.0000;123.8893
3293.0000;128.1324
3294.0000;125.7450
3295.0000;123.5365
3296.0000;120.7996
3297.0000;124.3363
3298.0000;122.8557
3299.0000;115.8366
3300.0000;111.2944
3301.0000;110.0522
3302.0000;111.7399
3303.0000;120.5508
3304.0000;125.4209
3305.0000;120.0043
3306.0000;114.9769
3307.0000;112.5349
3308.0000;109.7428
3309.0000;107.4327
3310.0000;114.0980
3311.0000;119.7294
3312.0000;109.8836
3313.0000;127.0895
3314.0000;122.2273
3315.0000;122.9031
3316.0000;132.2787
3317.0000;128.1063
3318.0000;119.2978
3319.0000;122.4164
3320.0000;127.8641
3321.0000;125.2006
3322.0000;123.1619
3323.0000;124.3921
3324.0000;121.6931
3325.0000;119.9207
3326.0000;129.2665
3327.0000;130.4020
3328.0000;125.7232
3329.0000;127.8164
3330.0000;122.3898
3331.0000;124.3503
3332.0000;126.1393
3333.0000;130.6617
3334.0000;121.5306
3335.0000;117.4254
3336.0000;123.5314
3337.0000;130.9943
3338.0000;132.6020
3339.0000;127.8598
3340.0000;123.6181
3341.0000;128.3998
3342.0000;129.5019
3343.0000;122.3813
3344.0000;131.0543
3345.0000;121.8320
3346.0000;118.8657
3347.0000;135.0749
3348.0000;133.7341
3349.0000;117.3528
3350.0000;125.4345
3351.0000;118.6632
3352.0000;122.2875
3353.0000;112.9624
3354.0000;114.5577
3355.0000;112.9898
3356.0000;120.2638
3357.0000;127.8599
3358.0000;116.9884
3359.0000;111.4993
3360.0000;112.2027
3361.0000;105.3968
3362.0000;109.3322
3363.0000;111.9084
3364.0000;117.4309
3365.0000;113.6882
3366.0000;114.4717
3367.0000;114.9001
3368.0000;105.2696
3369.0000;95.0554
3370.0000;88.5362
3371.0000;111.6194
3372.0000;100.2136
3373.0000;105.9308
3374.0000;100.3388
3375.0000;103.1753
3376.0000;95.8690
3377.0000;85.4190
3378.0000;90.7661
3379.0000;97.7447
3380.0000;95.8801
3381.0000;100.8937
3382.0000;92.6096
3383.0000;85.3272
3384.0000;77.3171
3385.0000;78.3139
3386.0000;83.4357
