Raman Shift ; Dark Subtracted #1
-2.0000;359.6477
-1.0000;332.4438
0.0000;293.6577
1.0000;245.9575
2.0000;192.8167
3.0000;141.1314
4.0000;99.0404
5.0000;64.0089
6.0000;41.0043
7.0000;33.6218
8.0000;27.8512
9.0000;23.1976
10.0000;23.8770
11.0000;23.0643
12.0000;18.3997
13.0000;14.6965
14.0000;13.3156
15.0000;15.6385
16.0000;19.2905
17.0000;20.4903
18.0000;16.7366
19.0000;11.5232
20.0000;8.4820
21.0000;10.6493
22.0000;14.3745
23.0000;15.3714
24.0000;10.0119
25.0000;2.8658
26.0000;-2.3532
27.0000;-2.0124
28.0000;1.7243
29.0000;5.2682
30.0000;4.6871
31.0000;3.5526
32.0000;4.6773
33.0000;11.7592
34.0000;20.6542
35.0000;27.1260
36.0000;27.4203
37.0000;23.4196
38.0000;19.2787
39.0000;20.9210
40.0000;24.2320
41.0000;25.6517
42.0000;20.9051
43.0000;12.8780
44.0000;5.8448
45.0000;2.8995
46.0000;4.2450
47.0000;7.8986
48.0000;12.3549
49.0000;17.4121
50.0000;20.7845
51.0000;19.2074
52.0000;14.2247
53.0000;10.8522
54.0000;14.0369
55.0000;22.5304
56.0000;32.7429
57.0000;41.4227
58.0000;48.1193
59.0000;54.2408
60.0000;61.0906
61.0000;67.5227
62.0000;76.2208
63.0000;89.5113
64.0000;106.0257
65.0000;128.7515
66.0000;160.5829
67.0000;198.1140
68.0000;241.1683
69.0000;292.7501
70.0000;345.1162
71.0000;400.2206
72.0000;470.9690
73.0000;543.0480
74.0000;609.0699
75.0000;676.4468
76.0000;726.5845
77.0000;772.1613
78.0000;841.1809
79.0000;918.6870
80.0000;993.9818
81.0000;1071.9180
82.0000;1137.6910
83.0000;1202.6780
84.0000;1292.9060
85.0000;1393.9280
86.0000;1492.8570
87.0000;1598.9880
88.0000;1692.7050
89.0000;1779.1430
90.0000;1884.2290
91.0000;1990.7440
92.0000;2088.4680
93.0000;2195.9210
94.0000;2293.6340
95.0000;2385.7630
96.0000;2502.9920
97.0000;2629.3910
98.0000;2744.2610
99.0000;2861.1160
100.0000;2960.5890
101.0000;3037.1010
102.0000;3132.6360
103.0000;3231.6840
104.0000;3318.9600
105.0000;3406.5000
106.0000;3480.3910
107.0000;3541.7450
108.0000;3626.1230
109.0000;3718.1790
110.0000;3801.4530
111.0000;3887.0100
112.0000;3962.2160
113.0000;4016.4090
114.0000;4074.4040
115.0000;4126.0460
116.0000;4166.8110
117.0000;4216.4900
118.0000;4269.9140
119.0000;4314.4010
120.0000;4353.7080
121.0000;4380.8700
122.0000;4397.2450
123.0000;4419.5220
124.0000;4445.4720
125.0000;4469.2420
126.0000;4493.9270
127.0000;4516.3270
128.0000;4538.5750
129.0000;4570.1380
130.0000;4608.9790
131.0000;4646.4930
132.0000;4679.5210
133.0000;4702.5490
134.0000;4719.5090
135.0000;4745.2680
136.0000;4778.0930
137.0000;4806.1590
138.0000;4825.6150
139.0000;4831.5830
140.0000;4829.0530
141.0000;4831.3990
142.0000;4839.2010
143.0000;4848.7980
144.0000;4862.5460
145.0000;4878.4490
146.0000;4894.5710
147.0000;4911.9970
148.0000;4926.9530
149.0000;4939.2320
150.0000;4951.3080
151.0000;4961.3620
152.0000;4969.5990
153.0000;4982.5340
154.0000;4999.1200
155.0000;5013.0890
156.0000;5024.6790
157.0000;5030.1840
158.0000;5030.8970
159.0000;5031.3290
160.0000;5030.5580
161.0000;5029.6600
162.0000;5030.9130
163.0000;5034.6410
164.0000;5042.5770
165.0000;5056.5910
166.0000;5076.4640
167.0000;5096.1730
168.0000;5113.3320
169.0000;5123.6090
170.0000;5131.9300
171.0000;5147.8970
172.0000;5168.4500
173.0000;5183.4530
174.0000;5188.1170
175.0000;5179.2190
176.0000;5168.6660
177.0000;5170.9750
178.0000;5184.7560
179.0000;5200.7150
180.0000;5208.5080
181.0000;5208.2770
182.0000;5207.8770
183.0000;5216.1090
184.0000;5231.2100
185.0000;5248.3700
186.0000;5266.6650
187.0000;5282.3580
188.0000;5297.1340
189.0000;5314.7870
190.0000;5329.7970
191.0000;5342.7630
192.0000;5357.3960
193.0000;5368.3200
194.0000;5376.9450
195.0000;5389.3710
196.0000;5399.5510
197.0000;5402.9110
198.0000;5397.1670
199.0000;5382.2570
200.0000;5367.8580
201.0000;5361.7100
202.0000;5364.3160
203.0000;5373.5910
204.0000;5386.4900
205.0000;5403.7140
206.0000;5420.4980
207.0000;5432.9450
208.0000;5440.5640
209.0000;5447.8690
210.0000;5462.4180
211.0000;5476.7710
212.0000;5490.0470
213.0000;5503.7420
214.0000;5512.1370
215.0000;5516.8000
216.0000;5517.6620
217.0000;5515.3620
218.0000;5517.9090
219.0000;5534.0220
220.0000;5556.0300
221.0000;5576.8230
222.0000;5591.8920
223.0000;5600.3120
224.0000;5605.5750
225.0000;5610.2730
226.0000;5612.1980
227.0000;5616.9030
228.0000;5627.8260
229.0000;5641.6340
230.0000;5657.9350
231.0000;5675.9580
232.0000;5693.0440
233.0000;5709.1340
234.0000;5724.1520
235.0000;5733.5120
236.0000;5739.7020
237.0000;5742.8540
238.0000;5742.5000
239.0000;5744.6610
240.0000;5751.3040
241.0000;5759.6750
242.0000;5769.9720
243.0000;5782.7180
244.0000;5792.3030
245.0000;5794.3300
246.0000;5785.3500
247.0000;5776.1840
248.0000;5781.3300
249.0000;5804.3010
250.0000;5830.3460
251.0000;5848.2050
252.0000;5851.9520
253.0000;5850.0940
254.0000;5854.2050
255.0000;5863.4580
256.0000;5873.9240
257.0000;5886.4910
258.0000;5898.5740
259.0000;5906.6300
260.0000;5908.7930
261.0000;5903.7830
262.0000;5897.8010
263.0000;5897.9170
264.0000;5904.1840
265.0000;5915.6310
266.0000;5931.6980
267.0000;5951.0570
268.0000;5971.4600
269.0000;5994.9250
270.0000;6014.5970
271.0000;6027.9190
272.0000;6036.1100
273.0000;6034.8730
274.0000;6031.6740
275.0000;6036.1510
276.0000;6042.3050
277.0000;6048.0000
278.0000;6050.2040
279.0000;6051.3680
280.0000;6056.2380
281.0000;6070.6870
282.0000;6087.7830
283.0000;6101.3100
284.0000;6104.0110
285.0000;6102.7950
286.0000;6110.7090
287.0000;6140.0780
288.0000;6172.0140
289.0000;6190.0160
290.0000;6179.7510
291.0000;6159.4500
292.0000;6155.0960
293.0000;6179.2580
294.0000;6212.0280
295.0000;6237.1230
296.0000;6246.9170
297.0000;6244.2290
298.0000;6234.5290
299.0000;6217.1520
300.0000;6200.0830
301.0000;6194.3380
302.0000;6204.2530
303.0000;6223.4980
304.0000;6244.7720
305.0000;6266.2490
306.0000;6286.2970
307.0000;6304.5780
308.0000;6317.1620
309.0000;6326.9050
310.0000;6343.2430
311.0000;6360.2650
312.0000;6374.8130
313.0000;6389.6440
314.0000;6399.0080
315.0000;6402.1610
316.0000;6400.2920
317.0000;6393.1000
318.0000;6389.1410
319.0000;6397.8200
320.0000;6413.7150
321.0000;6430.2520
322.0000;6442.5040
323.0000;6450.6070
324.0000;6458.1230
325.0000;6467.8400
326.0000;6475.5700
327.0000;6482.6940
328.0000;6489.3710
329.0000;6495.0790
330.0000;6504.5010
331.0000;6520.1380
332.0000;6535.7620
333.0000;6546.7990
334.0000;6550.1960
335.0000;6550.1970
336.0000;6555.1880
337.0000;6566.0980
338.0000;6580.4670
339.0000;6599.7170
340.0000;6622.5130
341.0000;6641.6880
342.0000;6656.0620
343.0000;6661.4560
344.0000;6661.7730
345.0000;6665.1750
346.0000;6669.6860
347.0000;6676.2410
348.0000;6689.4140
349.0000;6706.4100
350.0000;6721.5350
351.0000;6733.7820
352.0000;6739.8450
353.0000;6742.1080
354.0000;6746.1570
355.0000;6747.1950
356.0000;6746.3760
357.0000;6744.0690
358.0000;6741.4590
359.0000;6742.0590
360.0000;6749.6140
361.0000;6759.5970
362.0000;6767.4760
363.0000;6769.0990
364.0000;6767.9700
365.0000;6769.5470
366.0000;6776.1720
367.0000;6783.5380
368.0000;6788.4960
369.0000;6789.6140
370.0000;6788.6090
371.0000;6788.1520
372.0000;6788.3900
373.0000;6790.7500
374.0000;6797.8350
375.0000;6808.8470
376.0000;6821.1500
377.0000;6832.1050
378.0000;6840.2010
379.0000;6846.0760
380.0000;6851.7720
381.0000;6855.7810
382.0000;6862.4310
383.0000;6878.4550
384.0000;6897.7660
385.0000;6916.6000
386.0000;6931.3300
387.0000;6940.4400
388.0000;6951.3130
389.0000;6969.7360
390.0000;6988.0060
391.0000;7003.6360
392.0000;7015.4200
393.0000;7022.5060
394.0000;7033.3180
395.0000;7050.0900
396.0000;7064.7690
397.0000;7072.9060
398.0000;7071.2470
399.0000;7066.9180
400.0000;7072.2200
401.0000;7088.1630
402.0000;7105.1470
403.0000;7116.6110
404.0000;7120.2940
405.0000;7123.8740
406.0000;7138.0900
407.0000;7157.4480
408.0000;7176.4670
409.0000;7191.3500
410.0000;7199.0810
411.0000;7204.8170
412.0000;7214.6310
413.0000;7223.5540
414.0000;7233.3940
415.0000;7246.5760
416.0000;7259.1670
417.0000;7270.7650
418.0000;7280.1020
419.0000;7287.4430
420.0000;7298.4690
421.0000;7314.8870
422.0000;7329.8760
423.0000;7339.8150
424.0000;7341.4210
425.0000;7338.5250
426.0000;7339.7680
427.0000;7344.9800
428.0000;7349.5430
429.0000;7351.4640
430.0000;7349.9870
431.0000;7347.6170
432.0000;7347.3260
433.0000;7348.2640
434.0000;7348.9870
435.0000;7348.4340
436.0000;7346.9540
437.0000;7345.1000
438.0000;7341.1630
439.0000;7338.8770
440.0000;7341.8200
441.0000;7354.0020
442.0000;7369.5860
443.0000;7380.5430
444.0000;7381.7400
445.0000;7379.6510
446.0000;7384.8390
447.0000;7400.1890
448.0000;7416.7580
449.0000;7429.1780
450.0000;7433.8460
451.0000;7437.4200
452.0000;7450.8460
453.0000;7470.3450
454.0000;7486.6360
455.0000;7494.2210
456.0000;7491.9270
457.0000;7490.1690
458.0000;7499.8840
459.0000;7515.8640
460.0000;7534.2100
461.0000;7554.6810
462.0000;7573.6350
463.0000;7592.5640
464.0000;7613.5140
465.0000;7628.5850
466.0000;7638.6900
467.0000;7641.5960
468.0000;7640.0530
469.0000;7644.7600
470.0000;7657.7430
471.0000;7671.2720
472.0000;7681.5610
473.0000;7685.9560
474.0000;7686.2380
475.0000;7686.6170
476.0000;7685.3090
477.0000;7683.3970
478.0000;7679.7160
479.0000;7678.0130
480.0000;7684.6000
481.0000;7706.8290
482.0000;7736.8260
483.0000;7763.3030
484.0000;7777.1290
485.0000;7782.6270
486.0000;7792.9900
487.0000;7813.8040
488.0000;7834.5460
489.0000;7852.6020
490.0000;7864.1140
491.0000;7870.9090
492.0000;7881.6150
493.0000;7893.5480
494.0000;7902.3860
495.0000;7909.0580
496.0000;7910.5810
497.0000;7908.9090
498.0000;7907.2760
499.0000;7904.7660
500.0000;7904.0000
501.0000;7909.3930
502.0000;7916.4960
503.0000;7919.5870
504.0000;7913.0050
505.0000;7903.4450
506.0000;7899.7640
507.0000;7907.3560
508.0000;7918.8330
509.0000;7924.3010
510.0000;7921.1470
511.0000;7916.7360
512.0000;7920.1210
513.0000;7930.5880
514.0000;7939.2240
515.0000;7935.7840
516.0000;7923.3770
517.0000;7915.4070
518.0000;7925.2800
519.0000;7947.1340
520.0000;7970.3160
521.0000;7989.5040
522.0000;8000.8260
523.0000;8003.5720
524.0000;7993.7840
525.0000;7980.3900
526.0000;7980.3540
527.0000;8001.0480
528.0000;8026.6170
529.0000;8041.3340
530.0000;8039.7490
531.0000;8033.8580
532.0000;8035.6860
533.0000;8043.9920
534.0000;8057.8550
535.0000;8078.7980
536.0000;8102.1350
537.0000;8121.6000
538.0000;8134.5900
539.0000;8137.9410
540.0000;8140.5720
541.0000;8146.5910
542.0000;8154.3130
543.0000;8168.8200
544.0000;8192.1550
545.0000;8214.9090
546.0000;8231.2930
547.0000;8235.6520
548.0000;8234.9280
549.0000;8241.6770
550.0000;8251.9500
551.0000;8260.2250
552.0000;8263.0800
553.0000;8260.7810
554.0000;8260.0000
555.0000;8266.9410
556.0000;8278.1460
557.0000;8290.7250
558.0000;8304.7050
559.0000;8315.7000
560.0000;8320.7430
561.0000;8317.3000
562.0000;8310.4720
563.0000;8310.7790
564.0000;8319.3760
565.0000;8329.8110
566.0000;8335.9660
567.0000;8337.4130
568.0000;8337.3370
569.0000;8340.0790
570.0000;8343.1880
571.0000;8345.5080
572.0000;8348.6820
573.0000;8349.1550
574.0000;8344.5920
575.0000;8330.8020
576.0000;8317.6470
577.0000;8314.8480
578.0000;8327.4880
579.0000;8347.4440
580.0000;8362.0670
581.0000;8369.7480
582.0000;8377.5030
583.0000;8395.2940
584.0000;8417.2870
585.0000;8433.1320
586.0000;8437.8120
587.0000;8431.2100
588.0000;8425.2450
589.0000;8431.0160
590.0000;8439.3440
591.0000;8442.9340
592.0000;8436.9160
593.0000;8430.6630
594.0000;8434.5690
595.0000;8450.8940
596.0000;8470.6360
597.0000;8485.2380
598.0000;8492.2760
599.0000;8492.9290
600.0000;8491.6360
601.0000;8485.3850
602.0000;8476.9180
603.0000;8466.4580
604.0000;8459.4150
605.0000;8461.3670
606.0000;8477.7880
607.0000;8498.9590
608.0000;8509.0770
609.0000;8501.6660
610.0000;8490.4540
611.0000;8490.0110
612.0000;8501.8740
613.0000;8522.2020
614.0000;8552.0830
615.0000;8585.8560
616.0000;8614.1340
617.0000;8636.5980
618.0000;8645.1000
619.0000;8647.8380
620.0000;8647.0730
621.0000;8646.0910
622.0000;8660.5490
623.0000;8696.9070
624.0000;8734.1700
625.0000;8759.1990
626.0000;8763.2070
627.0000;8755.8330
628.0000;8750.8540
629.0000;8744.7130
630.0000;8740.4900
631.0000;8740.2950
632.0000;8745.8570
633.0000;8757.0540
634.0000;8773.3450
635.0000;8792.8750
636.0000;8813.0260
637.0000;8830.7710
638.0000;8842.6080
639.0000;8849.0160
640.0000;8846.8530
641.0000;8841.3810
642.0000;8839.2870
643.0000;8840.9800
644.0000;8849.2450
645.0000;8868.0170
646.0000;8892.5550
647.0000;8914.0560
648.0000;8925.8220
649.0000;8930.9580
650.0000;8940.7640
651.0000;8958.3750
652.0000;8974.0810
653.0000;8985.3540
654.0000;8988.6020
655.0000;8986.7910
656.0000;8985.9250
657.0000;8983.7920
658.0000;8982.0000
659.0000;8978.6320
660.0000;8979.5810
661.0000;8991.1120
662.0000;9020.1640
663.0000;9053.0670
664.0000;9075.9340
665.0000;9080.7210
666.0000;9075.2920
667.0000;9074.7040
668.0000;9076.3040
669.0000;9076.5430
670.0000;9073.7000
671.0000;9069.4300
672.0000;9068.1170
673.0000;9074.0260
674.0000;9083.3140
675.0000;9090.9640
676.0000;9094.7020
677.0000;9093.0800
678.0000;9084.9790
679.0000;9070.1980
680.0000;9057.8490
681.0000;9055.1620
682.0000;9064.2590
683.0000;9078.7710
684.0000;9089.1220
685.0000;9100.3710
686.0000;9118.4370
687.0000;9148.5020
688.0000;9180.4950
689.0000;9209.6860
690.0000;9230.5460
691.0000;9243.1560
692.0000;9259.1220
693.0000;9273.4380
694.0000;9280.6460
695.0000;9278.9380
696.0000;9269.7780
697.0000;9268.3260
698.0000;9290.8740
699.0000;9323.6740
700.0000;9351.3990
701.0000;9364.4650
702.0000;9366.5630
703.0000;9368.4660
704.0000;9369.7130
705.0000;9370.2090
706.0000;9372.9420
707.0000;9378.4330
708.0000;9389.9190
709.0000;9413.8140
710.0000;9441.4950
711.0000;9463.6330
712.0000;9473.9590
713.0000;9473.4430
714.0000;9473.2810
715.0000;9475.3620
716.0000;9476.6340
717.0000;9478.3490
718.0000;9480.4330
719.0000;9484.7130
720.0000;9489.4070
721.0000;9498.3830
722.0000;9519.6730
723.0000;9561.3080
724.0000;9606.6870
725.0000;9641.2040
726.0000;9654.2360
727.0000;9652.1970
728.0000;9655.6020
729.0000;9661.6850
730.0000;9664.9170
731.0000;9665.7870
732.0000;9663.2640
733.0000;9660.5000
734.0000;9659.5060
735.0000;9661.0540
736.0000;9667.0860
737.0000;9679.6230
738.0000;9692.0470
739.0000;9697.7630
740.0000;9694.5000
741.0000;9691.8160
742.0000;9703.9790
743.0000;9724.0980
744.0000;9738.2000
745.0000;9736.2240
746.0000;9721.4540
747.0000;9705.2140
748.0000;9693.1880
749.0000;9684.2790
750.0000;9676.5620
751.0000;9671.9310
752.0000;9669.9880
753.0000;9665.5370
754.0000;9661.9940
755.0000;9662.6000
756.0000;9669.9490
757.0000;9681.0100
758.0000;9689.6130
759.0000;9691.5050
760.0000;9688.4870
761.0000;9683.5830
762.0000;9677.5150
763.0000;9672.9140
764.0000;9673.0030
765.0000;9678.2410
766.0000;9685.6000
767.0000;9689.8580
768.0000;9694.6100
769.0000;9704.1590
770.0000;9720.2860
771.0000;9737.9670
772.0000;9753.4210
773.0000;9763.7400
774.0000;9769.6880
775.0000;9774.6200
776.0000;9776.8750
777.0000;9781.6000
778.0000;9796.0450
779.0000;9813.5670
780.0000;9831.3920
781.0000;9847.5180
782.0000;9858.9460
783.0000;9871.5760
784.0000;9881.9070
785.0000;9884.3530
786.0000;9875.3150
787.0000;9856.8010
788.0000;9844.8880
789.0000;9851.4960
790.0000;9870.7800
791.0000;9892.7270
792.0000;9910.6920
793.0000;9925.2860
794.0000;9936.5860
795.0000;9941.9540
796.0000;9945.0560
797.0000;9952.3560
798.0000;9962.3880
799.0000;9978.8620
800.0000;10011.7900
801.0000;10042.5400
802.0000;10057.7200
803.0000;10046.2800
804.0000;10026.6600
805.0000;10028.0500
806.0000;10049.3200
807.0000;10073.6800
808.0000;10086.3700
809.0000;10089.5200
810.0000;10090.6600
811.0000;10094.5900
812.0000;10098.2000
813.0000;10104.2400
814.0000;10113.1500
815.0000;10122.3800
816.0000;10132.3800
817.0000;10140.7200
818.0000;10145.1400
819.0000;10149.2500
820.0000;10146.4500
821.0000;10133.5600
822.0000;10106.4400
823.0000;10081.6900
824.0000;10082.2000
825.0000;10112.7600
826.0000;10145.6000
827.0000;10145.4600
828.0000;10121.3100
829.0000;10100.5900
830.0000;10105.6100
831.0000;10127.0400
832.0000;10153.6700
833.0000;10182.4700
834.0000;10207.6800
835.0000;10226.1800
836.0000;10232.1500
837.0000;10231.8300
838.0000;10237.7900
839.0000;10241.5300
840.0000;10241.3300
841.0000;10235.7500
842.0000;10227.8700
843.0000;10223.8700
844.0000;10225.8300
845.0000;10230.1500
846.0000;10233.9300
847.0000;10236.0700
848.0000;10233.8400
849.0000;10223.8600
850.0000;10210.3600
851.0000;10200.3500
852.0000;10197.3500
853.0000;10202.0900
854.0000;10210.8800
855.0000;10224.1400
856.0000;10243.2500
857.0000;10272.1100
858.0000;10300.7800
859.0000;10318.6200
860.0000;10316.1200
861.0000;10303.5400
862.0000;10304.8700
863.0000;10324.5500
864.0000;10348.8800
865.0000;10367.5900
866.0000;10377.3000
867.0000;10380.9400
868.0000;10381.0400
869.0000;10377.7600
870.0000;10381.9800
871.0000;10398.5400
872.0000;10417.6800
873.0000;10431.8400
874.0000;10437.8500
875.0000;10440.2000
876.0000;10445.9100
877.0000;10450.2600
878.0000;10453.9000
879.0000;10457.3500
880.0000;10459.7100
881.0000;10462.6700
882.0000;10465.9400
883.0000;10470.2100
884.0000;10475.9000
885.0000;10483.3300
886.0000;10495.1800
887.0000;10514.7700
888.0000;10535.8200
889.0000;10554.0500
890.0000;10564.9000
891.0000;10575.3300
892.0000;10599.4300
893.0000;10630.3200
894.0000;10656.8000
895.0000;10672.3900
896.0000;10677.3900
897.0000;10688.8200
898.0000;10713.7600
899.0000;10738.2600
900.0000;10758.6400
901.0000;10768.9400
902.0000;10769.5600
903.0000;10763.0400
904.0000;10750.3500
905.0000;10746.8400
906.0000;10761.9400
907.0000;10784.7000
908.0000;10801.6400
909.0000;10808.6900
910.0000;10816.2500
911.0000;10839.2200
912.0000;10868.1300
913.0000;10889.2300
914.0000;10893.6100
915.0000;10889.3900
916.0000;10898.0200
917.0000;10923.9800
918.0000;10948.8800
919.0000;10956.9300
920.0000;10948.8800
921.0000;10941.2000
922.0000;10950.6700
923.0000;10964.6000
924.0000;10971.6000
925.0000;10966.9900
926.0000;10959.5800
927.0000;10958.3600
928.0000;10964.1200
929.0000;10975.2000
930.0000;10992.4500
931.0000;11011.2600
932.0000;11025.6800
933.0000;11029.1600
934.0000;11032.5000
935.0000;11054.6300
936.0000;11089.7700
937.0000;11120.0100
938.0000;11133.0500
939.0000;11129.8300
940.0000;11128.8700
941.0000;11138.3400
942.0000;11151.2800
943.0000;11169.3600
944.0000;11188.8800
945.0000;11199.2700
946.0000;11191.8100
947.0000;11170.5900
948.0000;11152.8400
949.0000;11149.8600
950.0000;11155.8600
951.0000;11164.7900
952.0000;11175.5800
953.0000;11185.0900
954.0000;11185.1800
955.0000;11181.8000
956.0000;11191.2800
957.0000;11226.2000
958.0000;11262.4100
959.0000;11274.5400
960.0000;11254.7400
961.0000;11233.3000
962.0000;11244.8500
963.0000;11276.5200
964.0000;11308.3400
965.0000;11324.7100
966.0000;11333.4400
967.0000;11346.3900
968.0000;11362.6500
969.0000;11376.9900
970.0000;11392.6700
971.0000;11404.3000
972.0000;11415.5800
973.0000;11426.7800
974.0000;11437.9100
975.0000;11455.8900
976.0000;11478.5800
977.0000;11505.5600
978.0000;11542.9500
979.0000;11579.0200
980.0000;11602.9800
981.0000;11608.5800
982.0000;11598.1700
983.0000;11592.8900
984.0000;11593.8300
985.0000;11590.0600
986.0000;11567.0300
987.0000;11540.5200
988.0000;11535.7800
989.0000;11572.6200
990.0000;11626.9100
991.0000;11661.4400
992.0000;11665.3800
993.0000;11660.3300
994.0000;11672.6800
995.0000;11689.2400
996.0000;11701.1300
997.0000;11701.9100
998.0000;11699.9300
999.0000;11709.3800
1000.0000;11731.2400
1001.0000;11755.1200
1002.0000;11775.5700
1003.0000;11789.2700
1004.0000;11799.1200
1005.0000;11805.6300
1006.0000;11808.2500
1007.0000;11813.9500
1008.0000;11822.0000
1009.0000;11834.3600
1010.0000;11853.9300
1011.0000;11876.5700
1012.0000;11903.1900
1013.0000;11931.2300
1014.0000;11956.2900
1015.0000;11988.8700
1016.0000;12019.0500
1017.0000;12032.5500
1018.0000;12024.1000
1019.0000;11995.5700
1020.0000;11971.6100
1021.0000;11963.4500
1022.0000;11969.4400
1023.0000;11989.5000
1024.0000;12022.0100
1025.0000;12050.4500
1026.0000;12063.0800
1027.0000;12059.8100
1028.0000;12051.7500
1029.0000;12041.6200
1030.0000;12031.6400
1031.0000;12028.1700
1032.0000;12032.2300
1033.0000;12039.9700
1034.0000;12048.1100
1035.0000;12056.4800
1036.0000;12062.9600
1037.0000;12066.0700
1038.0000;12068.6900
1039.0000;12074.5200
1040.0000;12083.0800
1041.0000;12096.5500
1042.0000;12116.2600
1043.0000;12137.6600
1044.0000;12162.3200
1045.0000;12185.4200
1046.0000;12202.6200
1047.0000;12215.4700
1048.0000;12219.7900
1049.0000;12227.2600
1050.0000;12246.2800
1051.0000;12260.2600
1052.0000;12258.9700
1053.0000;12239.9000
1054.0000;12218.1000
1055.0000;12207.2400
1056.0000;12206.1500
1057.0000;12209.3600
1058.0000;12215.2500
1059.0000;12224.6600
1060.0000;12232.8100
1061.0000;12240.1700
1062.0000;12252.2500
1063.0000;12275.7200
1064.0000;12300.6100
1065.0000;12320.5400
1066.0000;12330.0200
1067.0000;12333.8400
1068.0000;12345.7700
1069.0000;12357.2100
1070.0000;12361.5200
1071.0000;12355.4300
1072.0000;12341.4800
1073.0000;12323.4400
1074.0000;12305.7300
1075.0000;12307.3800
1076.0000;12347.3800
1077.0000;12411.8200
1078.0000;12467.3200
1079.0000;12493.5200
1080.0000;12497.8500
1081.0000;12499.9800
1082.0000;12496.4100
1083.0000;12499.1000
1084.0000;12528.1600
1085.0000;12563.0300
1086.0000;12583.7200
1087.0000;12579.6500
1088.0000;12564.9500
1089.0000;12557.0000
1090.0000;12555.7400
1091.0000;12565.1400
1092.0000;12588.5000
1093.0000;12618.4900
1094.0000;12646.9900
1095.0000;12667.4800
1096.0000;12677.5200
1097.0000;12680.1800
1098.0000;12671.9000
1099.0000;12664.9600
1100.0000;12664.5500
1101.0000;12670.4300
1102.0000;12683.4500
1103.0000;12704.0500
1104.0000;12728.6800
1105.0000;12760.3800
1106.0000;12786.2400
1107.0000;12799.7100
1108.0000;12793.7600
1109.0000;12782.4800
1110.0000;12787.0900
1111.0000;12801.2100
1112.0000;12814.3200
1113.0000;12821.2800
1114.0000;12824.2500
1115.0000;12826.1400
1116.0000;12827.0400
1117.0000;12834.0600
1118.0000;12859.4500
1119.0000;12889.4500
1120.0000;12904.7100
1121.0000;12895.8900
1122.0000;12882.4100
1123.0000;12892.3600
1124.0000;12917.8100
1125.0000;12941.0300
1126.0000;12949.6000
1127.0000;12947.7800
1128.0000;12943.1700
1129.0000;12936.7100
1130.0000;12936.2800
1131.0000;12954.9400
1132.0000;12981.3200
1133.0000;12998.4900
1134.0000;12996.0400
1135.0000;12987.5600
1136.0000;12993.1900
1137.0000;13007.6000
1138.0000;13018.2700
1139.0000;13017.2600
1140.0000;13008.7800
1141.0000;13000.4400
1142.0000;12994.6100
1143.0000;12992.0000
1144.0000;12996.6800
1145.0000;13003.8200
1146.0000;13001.3800
1147.0000;12982.6100
1148.0000;12962.7700
1149.0000;12958.3800
1150.0000;12969.8600
1151.0000;12983.2300
1152.0000;12985.7700
1153.0000;12988.7400
1154.0000;13003.5700
1155.0000;13029.7900
1156.0000;13058.7400
1157.0000;13087.4000
1158.0000;13106.6400
1159.0000;13114.7600
1160.0000;13109.4500
1161.0000;13093.3900
1162.0000;13075.1200
1163.0000;13059.3000
1164.0000;13054.4500
1165.0000;13068.9400
1166.0000;13093.7600
1167.0000;13108.3100
1168.0000;13108.4200
1169.0000;13109.4400
1170.0000;13128.9600
1171.0000;13153.7900
1172.0000;13169.1000
1173.0000;13166.4900
1174.0000;13161.8400
1175.0000;13173.8500
1176.0000;13200.0300
1177.0000;13235.3400
1178.0000;13279.5100
1179.0000;13315.6500
1180.0000;13327.8500
1181.0000;13310.8900
1182.0000;13294.2000
1183.0000;13316.7800
1184.0000;13349.4100
1185.0000;13363.8600
1186.0000;13346.8100
1187.0000;13327.9800
1188.0000;13338.9900
1189.0000;13368.9700
1190.0000;13392.3000
1191.0000;13395.0300
1192.0000;13389.8400
1193.0000;13395.7400
1194.0000;13409.7300
1195.0000;13420.9500
1196.0000;13421.5200
1197.0000;13417.8500
1198.0000;13421.0900
1199.0000;13433.3400
1200.0000;13450.3800
1201.0000;13471.0900
1202.0000;13491.2400
1203.0000;13508.8100
1204.0000;13521.2100
1205.0000;13523.6800
1206.0000;13516.7700
1207.0000;13501.9400
1208.0000;13495.7800
1209.0000;13509.4700
1210.0000;13534.2400
1211.0000;13558.7800
1212.0000;13580.2000
1213.0000;13597.6100
1214.0000;13616.0000
1215.0000;13624.9600
1216.0000;13626.2700
1217.0000;13618.4300
1218.0000;13612.2600
1219.0000;13622.9700
1220.0000;13644.8500
1221.0000;13668.3100
1222.0000;13688.4300
1223.0000;13699.4400
1224.0000;13698.0400
1225.0000;13684.5100
1226.0000;13677.5500
1227.0000;13692.6900
1228.0000;13711.9400
1229.0000;13714.4600
1230.0000;13698.6700
1231.0000;13685.0500
1232.0000;13687.9600
1233.0000;13704.3300
1234.0000;13729.1300
1235.0000;13759.5100
1236.0000;13788.7600
1237.0000;13815.9600
1238.0000;13831.3000
1239.0000;13838.9400
1240.0000;13838.1800
1241.0000;13829.7800
1242.0000;13823.1600
1243.0000;13818.0400
1244.0000;13817.0800
1245.0000;13823.8900
1246.0000;13830.9100
1247.0000;13826.5900
1248.0000;13812.2600
1249.0000;13801.5800
1250.0000;13800.8700
1251.0000;13813.5800
1252.0000;13844.5300
1253.0000;13890.3900
1254.0000;13919.5300
1255.0000;13904.0200
1256.0000;13857.7100
1257.0000;13820.5900
1258.0000;13808.0600
1259.0000;13811.0900
1260.0000;13820.1700
1261.0000;13837.4300
1262.0000;13850.6600
1263.0000;13852.5800
1264.0000;13846.9100
1265.0000;13838.4500
1266.0000;13828.8100
1267.0000;13825.1700
1268.0000;13831.1700
1269.0000;13847.1300
1270.0000;13873.0200
1271.0000;13904.4900
1272.0000;13924.5000
1273.0000;13922.8100
1274.0000;13905.9900
1275.0000;13892.6200
1276.0000;13888.2000
1277.0000;13902.1200
1278.0000;13947.4900
1279.0000;14005.9500
1280.0000;14049.5400
1281.0000;14060.3300
1282.0000;14057.1500
1283.0000;14068.0900
1284.0000;14079.9600
1285.0000;14089.6900
1286.0000;14095.3000
1287.0000;14102.0000
1288.0000;14123.0900
1289.0000;14148.4000
1290.0000;14164.4100
1291.0000;14162.2600
1292.0000;14149.5800
1293.0000;14140.6300
1294.0000;14137.7100
1295.0000;14148.1600
1296.0000;14180.0500
1297.0000;14215.1800
1298.0000;14231.4400
1299.0000;14222.6200
1300.0000;14210.2000
1301.0000;14210.5000
1302.0000;14220.1500
1303.0000;14244.2000
1304.0000;14279.3000
1305.0000;14308.1000
1306.0000;14315.5500
1307.0000;14307.3800
1308.0000;14310.6500
1309.0000;14331.6400
1310.0000;14349.8400
1311.0000;14355.9400
1312.0000;14347.5500
1313.0000;14328.9000
1314.0000;14302.0800
1315.0000;14285.6500
1316.0000;14301.1400
1317.0000;14340.2500
1318.0000;14371.7600
1319.0000;14375.2600
1320.0000;14374.1000
1321.0000;14395.5500
1322.0000;14431.1200
1323.0000;14465.5000
1324.0000;14492.4300
1325.0000;14508.7100
1326.0000;14526.6000
1327.0000;14536.6500
1328.0000;14538.7900
1329.0000;14534.7800
1330.0000;14523.9800
1331.0000;14514.5500
1332.0000;14507.8000
1333.0000;14505.0900
1334.0000;14508.4100
1335.0000;14513.6000
1336.0000;14509.4600
1337.0000;14496.9300
1338.0000;14491.2900
1339.0000;14503.4100
1340.0000;14525.5500
1341.0000;14548.2000
1342.0000;14565.3200
1343.0000;14573.0000
1344.0000;14568.1100
1345.0000;14556.4300
1346.0000;14557.3100
1347.0000;14575.8800
1348.0000;14599.8100
1349.0000;14626.3600
1350.0000;14644.9900
1351.0000;14648.5500
1352.0000;14632.0300
1353.0000;14610.6000
1354.0000;14606.2400
1355.0000;14609.5300
1356.0000;14604.0400
1357.0000;14585.7000
1358.0000;14568.1000
1359.0000;14561.7900
1360.0000;14566.3100
1361.0000;14571.3800
1362.0000;14574.1100
1363.0000;14572.3400
1364.0000;14559.2300
1365.0000;14541.1700
1366.0000;14532.1400
1367.0000;14539.0400
1368.0000;14557.6000
1369.0000;14581.7700
1370.0000;14609.0700
1371.0000;14637.5200
1372.0000;14664.7100
1373.0000;14677.1100
1374.0000;14671.1300
1375.0000;14646.0800
1376.0000;14625.1000
1377.0000;14621.7000
1378.0000;14626.6900
1379.0000;14626.9400
1380.0000;14628.5600
1381.0000;14641.3400
1382.0000;14671.0000
1383.0000;14700.1500
1384.0000;14708.8400
1385.0000;14700.3700
1386.0000;14704.3600
1387.0000;14738.7400
1388.0000;14782.1700
1389.0000;14819.1600
1390.0000;14843.1800
1391.0000;14865.8700
1392.0000;14896.2500
1393.0000;14909.7800
1394.0000;14899.1500
1395.0000;14862.2500
1396.0000;14822.6000
1397.0000;14793.8300
1398.0000;14784.1900
1399.0000;14795.9200
1400.0000;14831.2900
1401.0000;14868.6100
1402.0000;14889.7000
1403.0000;14907.4000
1404.0000;14945.3500
1405.0000;14989.6500
1406.0000;15017.9300
1407.0000;15014.4300
1408.0000;14999.1900
1409.0000;15010.5300
1410.0000;15043.4900
1411.0000;15081.3300
1412.0000;15117.7200
1413.0000;15138.9100
1414.0000;15137.4300
1415.0000;15111.8800
1416.0000;15092.7000
1417.0000;15103.2000
1418.0000;15119.1900
1419.0000;15110.2900
1420.0000;15084.6400
1421.0000;15079.3400
1422.0000;15116.3400
1423.0000;15162.5700
1424.0000;15180.8000
1425.0000;15170.8600
1426.0000;15160.7600
1427.0000;15165.4600
1428.0000;15176.9000
1429.0000;15192.7500
1430.0000;15212.0200
1431.0000;15237.7100
1432.0000;15270.6900
1433.0000;15298.9400
1434.0000;15320.4600
1435.0000;15327.0800
1436.0000;15326.6000
1437.0000;15323.2600
1438.0000;15314.9200
1439.0000;15308.1100
1440.0000;15302.4000
1441.0000;15295.7100
1442.0000;15288.1400
1443.0000;15282.2900
1444.0000;15278.0900
1445.0000;15276.9000
1446.0000;15275.1300
1447.0000;15271.2100
1448.0000;15269.0300
1449.0000;15272.6800
1450.0000;15278.2500
1451.0000;15274.3300
1452.0000;15255.2500
1453.0000;15243.6900
1454.0000;15262.7300
1455.0000;15301.9800
1456.0000;15336.9200
1457.0000;15353.4100
1458.0000;15358.9000
1459.0000;15367.3300
1460.0000;15367.6000
1461.0000;15361.8100
1462.0000;15349.6800
1463.0000;15336.7400
1464.0000;15326.2600
1465.0000;15322.6200
1466.0000;15328.1800
1467.0000;15343.5500
1468.0000;15354.6000
1469.0000;15345.7000
1470.0000;15326.5200
1471.0000;15311.0700
1472.0000;15305.8900
1473.0000;15314.4000
1474.0000;15341.3600
1475.0000;15374.7800
1476.0000;15390.3500
1477.0000;15383.7400
1478.0000;15377.7100
1479.0000;15394.6000
1480.0000;15414.8300
1481.0000;15421.9300
1482.0000;15413.2000
1483.0000;15400.6800
1484.0000;15389.9300
1485.0000;15386.6600
1486.0000;15399.1400
1487.0000;15424.8900
1488.0000;15448.0000
1489.0000;15455.1900
1490.0000;15457.0800
1491.0000;15473.6100
1492.0000;15494.5900
1493.0000;15498.7200
1494.0000;15471.7500
1495.0000;15451.9000
1496.0000;15483.8200
1497.0000;15549.5800
1498.0000;15606.1300
1499.0000;15627.8100
1500.0000;15625.8000
1501.0000;15621.7900
1502.0000;15606.5700
1503.0000;15590.6600
1504.0000;15579.6400
1505.0000;15572.1100
1506.0000;15565.4500
1507.0000;15562.8000
1508.0000;15555.9000
1509.0000;15546.0500
1510.0000;15550.2200
1511.0000;15582.8700
1512.0000;15627.0000
1513.0000;15657.1000
1514.0000;15665.7500
1515.0000;15666.6600
1516.0000;15670.2100
1517.0000;15675.8800
1518.0000;15697.8400
1519.0000;15730.5500
1520.0000;15760.8900
1521.0000;15778.7600
1522.0000;15785.5900
1523.0000;15795.4800
1524.0000;15802.0200
1525.0000;15804.8800
1526.0000;15803.9300
1527.0000;15802.7100
1528.0000;15810.3800
1529.0000;15821.4500
1530.0000;15826.2100
1531.0000;15820.5800
1532.0000;15813.4800
1533.0000;15810.9100
1534.0000;15817.1400
1535.0000;15838.8400
1536.0000;15874.4400
1537.0000;15908.0400
1538.0000;15930.3100
1539.0000;15932.6100
1540.0000;15916.3500
1541.0000;15885.6600
1542.0000;15879.8000
1543.0000;15934.8200
1544.0000;16004.5200
1545.0000;16031.8700
1546.0000;16011.5400
1547.0000;15986.3500
1548.0000;15981.1200
1549.0000;15976.3200
1550.0000;15959.7100
1551.0000;15939.3500
1552.0000;15921.9900
1553.0000;15912.8000
1554.0000;15917.2300
1555.0000;15934.1300
1556.0000;15962.0600
1557.0000;15988.4300
1558.0000;16006.4800
1559.0000;16021.7900
1560.0000;16043.9100
1561.0000;16062.1900
1562.0000;16081.3000
1563.0000;16095.6000
1564.0000;16101.5800
1565.0000;16099.7600
1566.0000;16089.8600
1567.0000;16082.4900
1568.0000;16076.5300
1569.0000;16066.9700
1570.0000;16051.9800
1571.0000;16038.5700
1572.0000;16030.8300
1573.0000;16029.3900
1574.0000;16023.3300
1575.0000;16009.8700
1576.0000;16002.7900
1577.0000;16006.9100
1578.0000;16025.6900
1579.0000;16061.4200
1580.0000;16105.8800
1581.0000;16129.0800
1582.0000;16106.2600
1583.0000;16062.2500
1584.0000;16040.6500
1585.0000;16048.2300
1586.0000;16074.9500
1587.0000;16117.4900
1588.0000;16160.5900
1589.0000;16181.8100
1590.0000;16179.3400
1591.0000;16176.6500
1592.0000;16180.9700
1593.0000;16188.9600
1594.0000;16210.8800
1595.0000;16230.6400
1596.0000;16231.1300
1597.0000;16207.1300
1598.0000;16178.7300
1599.0000;16159.5000
1600.0000;16154.9200
1601.0000;16167.7800
1602.0000;16196.0400
1603.0000;16214.6900
1604.0000;16205.2500
1605.0000;16186.8500
1606.0000;16181.1400
1607.0000;16186.5000
1608.0000;16196.1900
1609.0000;16208.1700
1610.0000;16223.0300
1611.0000;16239.2100
1612.0000;16254.4100
1613.0000;16272.9900
1614.0000;16291.6900
1615.0000;16305.2300
1616.0000;16315.1800
1617.0000;16315.2200
1618.0000;16306.5200
1619.0000;16292.3600
1620.0000;16291.3500
1621.0000;16315.0300
1622.0000;16340.8800
1623.0000;16343.5100
1624.0000;16330.1400
1625.0000;16322.9800
1626.0000;16327.9700
1627.0000;16331.7500
1628.0000;16324.9700
1629.0000;16313.5400
1630.0000;16299.9800
1631.0000;16290.2000
1632.0000;16294.8100
1633.0000;16320.2200
1634.0000;16353.9400
1635.0000;16383.1600
1636.0000;16398.9100
1637.0000;16401.9100
1638.0000;16389.1000
1639.0000;16377.8300
1640.0000;16393.9000
1641.0000;16420.9700
1642.0000;16433.2700
1643.0000;16427.6400
1644.0000;16429.2800
1645.0000;16459.4100
1646.0000;16489.5000
1647.0000;16494.6100
1648.0000;16476.9800
1649.0000;16467.9500
1650.0000;16482.5300
1651.0000;16497.9400
1652.0000;16497.2700
1653.0000;16486.4900
1654.0000;16475.8600
1655.0000;16469.7800
1656.0000;16475.5300
1657.0000;16506.8900
1658.0000;16530.8800
1659.0000;16503.1500
1660.0000;16437.4000
1661.0000;16404.2600
1662.0000;16438.5600
1663.0000;16482.5200
1664.0000;16475.8100
1665.0000;16440.1300
1666.0000;16415.8800
1667.0000;16410.8800
1668.0000;16406.6500
1669.0000;16388.0000
1670.0000;16372.7100
1671.0000;16372.9700
1672.0000;16388.6300
1673.0000;16401.2500
1674.0000;16402.2400
1675.0000;16400.0600
1676.0000;16403.0700
1677.0000;16407.5700
1678.0000;16411.2300
1679.0000;16413.3400
1680.0000;16417.0300
1681.0000;16425.4700
1682.0000;16434.0100
1683.0000;16439.4400
1684.0000;16440.9300
1685.0000;16444.7100
1686.0000;16453.3800
1687.0000;16455.9800
1688.0000;16442.1400
1689.0000;16422.8200
1690.0000;16417.2400
1691.0000;16429.2700
1692.0000;16437.6300
1693.0000;16427.6300
1694.0000;16411.0400
1695.0000;16396.5300
1696.0000;16388.9700
1697.0000;16392.4800
1698.0000;16410.1600
1699.0000;16425.8000
1700.0000;16424.0700
1701.0000;16409.5200
1702.0000;16391.9600
1703.0000;16375.5400
1704.0000;16368.0500
1705.0000;16376.1800
1706.0000;16386.9700
1707.0000;16381.0400
1708.0000;16363.2800
1709.0000;16342.9500
1710.0000;16325.5100
1711.0000;16321.7000
1712.0000;16337.3900
1713.0000;16367.6300
1714.0000;16396.8500
1715.0000;16419.8800
1716.0000;16440.0800
1717.0000;16456.6100
1718.0000;16461.4700
1719.0000;16457.5300
1720.0000;16444.2100
1721.0000;16435.3900
1722.0000;16434.2500
1723.0000;16435.1900
1724.0000;16432.2800
1725.0000;16437.2400
1726.0000;16462.3300
1727.0000;16498.3200
1728.0000;16519.8400
1729.0000;16516.8200
1730.0000;16507.3100
1731.0000;16513.0000
1732.0000;16518.9600
1733.0000;16516.5700
1734.0000;16505.3700
1735.0000;16491.2500
1736.0000;16477.7700
1737.0000;16466.9900
1738.0000;16458.8100
1739.0000;16456.3300
1740.0000;16456.1600
1741.0000;16457.5200
1742.0000;16451.2300
1743.0000;16428.9400
1744.0000;16404.1500
1745.0000;16383.9400
1746.0000;16376.3000
1747.0000;16380.5300
1748.0000;16398.7600
1749.0000;16424.5400
1750.0000;16453.9800
1751.0000;16474.4700
1752.0000;16474.4500
1753.0000;16454.6500
1754.0000;16443.0500
1755.0000;16452.1800
1756.0000;16478.8100
1757.0000;16528.4200
1758.0000;16574.0900
1759.0000;16579.9100
1760.0000;16539.1200
1761.0000;16506.8900
1762.0000;16516.5400
1763.0000;16537.0500
1764.0000;16539.7900
1765.0000;16528.2000
1766.0000;16503.7500
1767.0000;16470.9500
1768.0000;16443.9100
1769.0000;16430.0800
1770.0000;16436.6800
1771.0000;16461.9200
1772.0000;16496.2800
1773.0000;16508.5100
1774.0000;16485.7700
1775.0000;16468.7700
1776.0000;16496.6600
1777.0000;16533.2200
1778.0000;16537.0000
1779.0000;16506.6900
1780.0000;16467.3100
1781.0000;16428.5300
1782.0000;16405.6000
1783.0000;16416.1800
1784.0000;16436.5100
1785.0000;16411.1100
1786.0000;16345.1600
1787.0000;16294.7100
1788.0000;16286.9500
1789.0000;16301.5400
1790.0000;16302.0300
1791.0000;16308.7500
1792.0000;16336.5000
1793.0000;16378.8400
1794.0000;16400.4700
1795.0000;16380.5600
1796.0000;16346.5700
1797.0000;16330.7800
1798.0000;16332.7200
1799.0000;16349.1300
1800.0000;16377.0600
1801.0000;16396.1700
1802.0000;16390.6400
1803.0000;16368.0100
1804.0000;16340.8000
1805.0000;16312.9400
1806.0000;16287.7100
1807.0000;16272.5000
1808.0000;16264.4600
1809.0000;16259.6100
1810.0000;16255.5900
1811.0000;16236.5900
1812.0000;16210.8500
1813.0000;16191.2700
1814.0000;16183.7900
1815.0000;16182.8700
1816.0000;16179.7500
1817.0000;16181.6900
1818.0000;16191.1400
1819.0000;16201.9600
1820.0000;16197.2600
1821.0000;16171.6500
1822.0000;16147.9200
1823.0000;16146.9200
1824.0000;16152.5000
1825.0000;16137.1500
1826.0000;16111.3500
1827.0000;16101.5500
1828.0000;16116.8300
1829.0000;16128.4600
1830.0000;16105.6200
1831.0000;16077.5600
1832.0000;16072.5600
1833.0000;16093.8700
1834.0000;16129.7000
1835.0000;16173.3400
1836.0000;16212.5200
1837.0000;16243.2300
1838.0000;16249.4500
1839.0000;16232.8300
1840.0000;16197.1900
1841.0000;16180.0900
1842.0000;16197.9600
1843.0000;16223.5900
1844.0000;16233.9600
1845.0000;16236.4400
1846.0000;16241.5100
1847.0000;16242.8700
1848.0000;16229.1000
1849.0000;16197.8400
1850.0000;16188.0700
1851.0000;16237.8400
1852.0000;16301.4200
1853.0000;16314.7000
1854.0000;16283.2300
1855.0000;16266.6700
1856.0000;16283.1300
1857.0000;16296.9600
1858.0000;16286.1500
1859.0000;16262.9600
1860.0000;16237.3300
1861.0000;16217.9200
1862.0000;16216.4400
1863.0000;16238.1800
1864.0000;16258.0400
1865.0000;16254.2300
1866.0000;16238.2600
1867.0000;16221.8600
1868.0000;16210.1100
1869.0000;16211.5400
1870.0000;16229.8700
1871.0000;16252.2700
1872.0000;16265.3000
1873.0000;16278.7000
1874.0000;16311.0200
1875.0000;16345.5300
1876.0000;16357.1100
1877.0000;16339.4600
1878.0000;16326.4100
1879.0000;16343.4500
1880.0000;16367.8400
1881.0000;16380.8300
1882.0000;16382.9200
1883.0000;16380.5400
1884.0000;16376.1100
1885.0000;16386.8000
1886.0000;16425.3300
1887.0000;16462.5300
1888.0000;16471.0800
1889.0000;16457.8300
1890.0000;16456.1900
1891.0000;16466.9000
1892.0000;16479.8700
1893.0000;16491.8900
1894.0000;16496.6100
1895.0000;16485.9400
1896.0000;16473.6200
1897.0000;16488.4900
1898.0000;16524.9500
1899.0000;16548.3800
1900.0000;16541.8200
1901.0000;16532.7700
1902.0000;16550.6400
1903.0000;16574.7100
1904.0000;16587.9500
1905.0000;16588.1100
1906.0000;16587.5500
1907.0000;16589.2500
1908.0000;16597.7600
1909.0000;16617.0000
1910.0000;16645.2000
1911.0000;16683.6700
1912.0000;16719.6600
1913.0000;16744.9000
1914.0000;16748.7000
1915.0000;16736.8400
1916.0000;16716.4300
1917.0000;16690.4100
1918.0000;16663.1200
1919.0000;16648.3700
1920.0000;16651.3300
1921.0000;16676.5600
1922.0000;16713.9300
1923.0000;16756.6800
1924.0000;16787.1500
1925.0000;16792.9500
1926.0000;16783.1700
1927.0000;16801.8700
1928.0000;16837.0500
1929.0000;16850.8200
1930.0000;16827.2500
1931.0000;16801.4600
1932.0000;16803.1400
1933.0000;16822.9700
1934.0000;16848.9100
1935.0000;16879.3800
1936.0000;16911.1600
1937.0000;16937.0200
1938.0000;16941.5000
1939.0000;16915.0600
1940.0000;16884.4600
1941.0000;16890.1500
1942.0000;16917.5900
1943.0000;16933.4700
1944.0000;16934.1800
1945.0000;16932.7100
1946.0000;16933.0900
1947.0000;16940.5800
1948.0000;16964.1600
1949.0000;16992.4300
1950.0000;17010.3800
1951.0000;17016.0700
1952.0000;17028.8800
1953.0000;17051.2800
1954.0000;17068.2900
1955.0000;17073.5900
1956.0000;17071.6300
1957.0000;17079.9700
1958.0000;17088.1800
1959.0000;17082.7400
1960.0000;17064.3900
1961.0000;17052.7800
1962.0000;17059.3700
1963.0000;17079.8000
1964.0000;17101.0900
1965.0000;17133.7600
1966.0000;17191.8200
1967.0000;17258.0700
1968.0000;17305.5200
1969.0000;17319.4000
1970.0000;17323.0900
1971.0000;17345.4700
1972.0000;17362.9400
1973.0000;17371.0300
1974.0000;17369.7800
1975.0000;17375.8800
1976.0000;17389.0500
1977.0000;17401.6500
1978.0000;17410.8400
1979.0000;17408.0000
1980.0000;17384.7400
1981.0000;17357.5200
1982.0000;17353.5800
1983.0000;17372.1700
1984.0000;17387.4000
1985.0000;17391.3700
1986.0000;17394.0100
1987.0000;17398.3900
1988.0000;17407.8400
1989.0000;17436.8400
1990.0000;17465.2900
1991.0000;17462.6300
1992.0000;17429.2500
1993.0000;17412.5400
1994.0000;17434.5700
1995.0000;17470.5600
1996.0000;17502.4600
1997.0000;17525.4800
1998.0000;17538.8800
1999.0000;17536.4100
2000.0000;17529.2900
2001.0000;17521.0200
2002.0000;17525.6300
2003.0000;17552.5300
2004.0000;17586.4900
2005.0000;17615.2000
2006.0000;17633.2500
2007.0000;17648.8200
2008.0000;17653.8800
2009.0000;17651.3900
2010.0000;17641.4900
2011.0000;17628.3200
2012.0000;17612.2900
2013.0000;17615.9300
2014.0000;17659.6400
2015.0000;17727.1800
2016.0000;17788.0900
2017.0000;17824.8700
2018.0000;17845.2400
2019.0000;17846.8400
2020.0000;17820.8400
2021.0000;17770.3900
2022.0000;17720.2800
2023.0000;17707.4700
2024.0000;17723.8800
2025.0000;17718.5700
2026.0000;17690.1600
2027.0000;17665.6900
2028.0000;17657.3000
2029.0000;17655.9200
2030.0000;17647.3900
2031.0000;17645.8800
2032.0000;17658.9500
2033.0000;17680.8000
2034.0000;17688.2900
2035.0000;17679.1100
2036.0000;17683.4300
2037.0000;17719.3100
2038.0000;17747.0600
2039.0000;17735.0500
2040.0000;17704.9600
2041.0000;17697.3600
2042.0000;17709.7400
2043.0000;17730.8500
2044.0000;17753.0600
2045.0000;17755.0200
2046.0000;17721.1200
2047.0000;17682.0000
2048.0000;17672.3100
2049.0000;17672.9300
2050.0000;17646.2900
2051.0000;17605.7800
2052.0000;17582.1700
2053.0000;17583.8000
2054.0000;17577.8800
2055.0000;17542.9800
2056.0000;17515.8000
2057.0000;17514.8900
2058.0000;17545.7700
2059.0000;17606.5300
2060.0000;17674.4100
2061.0000;17704.3200
2062.0000;17677.4200
2063.0000;17652.6500
2064.0000;17670.1900
2065.0000;17692.4000
2066.0000;17685.6500
2067.0000;17674.5600
2068.0000;17695.6200
2069.0000;17736.0500
2070.0000;17753.0700
2071.0000;17736.8700
2072.0000;17729.3200
2073.0000;17755.4900
2074.0000;17781.3000
2075.0000;17779.3500
2076.0000;17764.5200
2077.0000;17768.4400
2078.0000;17778.6500
2079.0000;17763.0600
2080.0000;17721.3700
2081.0000;17687.0100
2082.0000;17680.6900
2083.0000;17692.9500
2084.0000;17707.5200
2085.0000;17729.4500
2086.0000;17758.1000
2087.0000;17780.6700
2088.0000;17782.6900
2089.0000;17762.2400
2090.0000;17754.4300
2091.0000;17776.2500
2092.0000;17799.2900
2093.0000;17804.4000
2094.0000;17791.1200
2095.0000;17757.6000
2096.0000;17721.5500
2097.0000;17722.7400
2098.0000;17762.3800
2099.0000;17793.9900
2100.0000;17795.1500
2101.0000;17796.8700
2102.0000;17821.0700
2103.0000;17844.4600
2104.0000;17855.8600
2105.0000;17853.2400
2106.0000;17848.9400
2107.0000;17843.0300
2108.0000;17840.6500
2109.0000;17844.2100
2110.0000;17851.3200
2111.0000;17860.7900
2112.0000;17866.6000
2113.0000;17862.4300
2114.0000;17854.5100
2115.0000;17852.4000
2116.0000;17859.4100
2117.0000;17885.3900
2118.0000;17921.7100
2119.0000;17912.8600
2120.0000;17830.4700
2121.0000;17760.2500
2122.0000;17775.8100
2123.0000;17831.9500
2124.0000;17854.2500
2125.0000;17860.5400
2126.0000;17886.0800
2127.0000;17918.4100
2128.0000;17925.7800
2129.0000;17894.4900
2130.0000;17857.6800
2131.0000;17843.8000
2132.0000;17834.6300
2133.0000;17801.2500
2134.0000;17775.5800
2135.0000;17786.7900
2136.0000;17829.0700
2137.0000;17860.7500
2138.0000;17870.2700
2139.0000;17879.6800
2140.0000;17897.2100
2141.0000;17902.7200
2142.0000;17885.1000
2143.0000;17862.2100
2144.0000;17864.4100
2145.0000;17879.5900
2146.0000;17884.6400
2147.0000;17869.9600
2148.0000;17816.2900
2149.0000;17727.3800
2150.0000;17681.4300
2151.0000;17731.8000
2152.0000;17800.8000
2153.0000;17790.6900
2154.0000;17749.3600
2155.0000;17737.4800
2156.0000;17753.2800
2157.0000;17789.9600
2158.0000;17838.2600
2159.0000;17862.5700
2160.0000;17842.6200
2161.0000;17820.4900
2162.0000;17832.8200
2163.0000;17849.2700
2164.0000;17845.0800
2165.0000;17826.2800
2166.0000;17806.0000
2167.0000;17782.1000
2168.0000;17742.9500
2169.0000;17695.0900
2170.0000;17659.1000
2171.0000;17649.9700
2172.0000;17647.8600
2173.0000;17627.6100
2174.0000;17608.6100
2175.0000;17586.0900
2176.0000;17581.5900
2177.0000;17611.3400
2178.0000;17671.6100
2179.0000;17738.9400
2180.0000;17790.1800
2181.0000;17809.2200
2182.0000;17783.3000
2183.0000;17746.8600
2184.0000;17744.2300
2185.0000;17751.1300
2186.0000;17739.8900
2187.0000;17726.8800
2188.0000;17732.5900
2189.0000;17752.4900
2190.0000;17756.1200
2191.0000;17735.9000
2192.0000;17712.2600
2193.0000;17695.5300
2194.0000;17685.4600
2195.0000;17681.7200
2196.0000;17679.7800
2197.0000;17658.8200
2198.0000;17638.6700
2199.0000;17646.1900
2200.0000;17674.6400
2201.0000;17679.8600
2202.0000;17652.5400
2203.0000;17637.4900
2204.0000;17655.8300
2205.0000;17672.5200
2206.0000;17657.1500
2207.0000;17642.4200
2208.0000;17663.0600
2209.0000;17701.4600
2210.0000;17726.6600
2211.0000;17735.5700
2212.0000;17744.7900
2213.0000;17751.9200
2214.0000;17750.7900
2215.0000;17739.7900
2216.0000;17729.1300
2217.0000;17728.9900
2218.0000;17729.2900
2219.0000;17721.0100
2220.0000;17704.7700
2221.0000;17679.7000
2222.0000;17651.7100
2223.0000;17619.1800
2224.0000;17593.6100
2225.0000;17588.6800
2226.0000;17609.4200
2227.0000;17623.7600
2228.0000;17605.7800
2229.0000;17579.8100
2230.0000;17569.3600
2231.0000;17561.4500
2232.0000;17534.0700
2233.0000;17505.6300
2234.0000;17499.3400
2235.0000;17515.1800
2236.0000;17517.5100
2237.0000;17499.8600
2238.0000;17489.6400
2239.0000;17499.7200
2240.0000;17512.7500
2241.0000;17513.2000
2242.0000;17514.1900
2243.0000;17530.5700
2244.0000;17550.3100
2245.0000;17564.2900
2246.0000;17563.0600
2247.0000;17536.3800
2248.0000;17493.0000
2249.0000;17484.2200
2250.0000;17528.9900
2251.0000;17566.7800
2252.0000;17559.2100
2253.0000;17530.3200
2254.0000;17498.6000
2255.0000;17476.1600
2256.0000;17483.7800
2257.0000;17508.3600
2258.0000;17505.7400
2259.0000;17483.4700
2260.0000;17476.6700
2261.0000;17492.4600
2262.0000;17515.7100
2263.0000;17538.7000
2264.0000;17551.7400
2265.0000;17546.0100
2266.0000;17536.6400
2267.0000;17546.4100
2268.0000;17561.7000
2269.0000;17565.1800
2270.0000;17567.0700
2271.0000;17593.1900
2272.0000;17636.2100
2273.0000;17667.2100
2274.0000;17675.0000
2275.0000;17675.6100
2276.0000;17675.3800
2277.0000;17658.8900
2278.0000;17619.3800
2279.0000;17585.7500
2280.0000;17588.2400
2281.0000;17609.5800
2282.0000;17611.3000
2283.0000;17602.7800
2284.0000;17600.4800
2285.0000;17602.8500
2286.0000;17596.1000
2287.0000;17582.1400
2288.0000;17588.6100
2289.0000;17625.6000
2290.0000;17661.5300
2291.0000;17675.3700
2292.0000;17669.4300
2293.0000;17655.4500
2294.0000;17631.0600
2295.0000;17601.3300
2296.0000;17582.2000
2297.0000;17588.0100
2298.0000;17616.2700
2299.0000;17629.2100
2300.0000;17621.5600
2301.0000;17619.9400
2302.0000;17631.9100
2303.0000;17635.6300
2304.0000;17620.7600
2305.0000;17593.0100
2306.0000;17554.9800
2307.0000;17523.8400
2308.0000;17507.4900
2309.0000;17510.6800
2310.0000;17516.9900
2311.0000;17523.7500
2312.0000;17511.8400
2313.0000;17484.5200
2314.0000;17469.2500
2315.0000;17475.1400
2316.0000;17489.6000
2317.0000;17504.7500
2318.0000;17519.1900
2319.0000;17529.6500
2320.0000;17528.7500
2321.0000;17517.2100
2322.0000;17494.5400
2323.0000;17461.8900
2324.0000;17435.9900
2325.0000;17436.9000
2326.0000;17457.4300
2327.0000;17445.4800
2328.0000;17402.2500
2329.0000;17380.4800
2330.0000;17401.0900
2331.0000;17426.7900
2332.0000;17436.3800
2333.0000;17457.2300
2334.0000;17509.9100
2335.0000;17560.0000
2336.0000;17588.4200
2337.0000;17588.4700
2338.0000;17573.0600
2339.0000;17556.9100
2340.0000;17592.9800
2341.0000;17660.8300
2342.0000;17681.1900
2343.0000;17640.7800
2344.0000;17604.5800
2345.0000;17597.9600
2346.0000;17609.2100
2347.0000;17637.1400
2348.0000;17654.9700
2349.0000;17636.8900
2350.0000;17609.6000
2351.0000;17610.1000
2352.0000;17616.6600
2353.0000;17596.5100
2354.0000;17570.6700
2355.0000;17569.7300
2356.0000;17590.4600
2357.0000;17600.5600
2358.0000;17592.6900
2359.0000;17571.5400
2360.0000;17539.0800
2361.0000;17502.7400
2362.0000;17469.9600
2363.0000;17476.3000
2364.0000;17547.6300
2365.0000;17601.7700
2366.0000;17545.7300
2367.0000;17471.0900
2368.0000;17495.6100
2369.0000;17567.6700
2370.0000;17587.3800
2371.0000;17566.7200
2372.0000;17565.6100
2373.0000;17576.9400
2374.0000;17560.5800
2375.0000;17516.6200
2376.0000;17493.3500
2377.0000;17510.9700
2378.0000;17538.6200
2379.0000;17557.3400
2380.0000;17566.6400
2381.0000;17563.7400
2382.0000;17550.0000
2383.0000;17528.2800
2384.0000;17519.2800
2385.0000;17553.3800
2386.0000;17601.4800
2387.0000;17606.3600
2388.0000;17574.2100
2389.0000;17558.8400
2390.0000;17558.1900
2391.0000;17528.1000
2392.0000;17472.6100
2393.0000;17450.7800
2394.0000;17484.8600
2395.0000;17503.0500
2396.0000;17461.7300
2397.0000;17430.9200
2398.0000;17461.6400
2399.0000;17506.0700
2400.0000;17518.9400
2401.0000;17513.2800
2402.0000;17508.3700
2403.0000;17501.8000
2404.0000;17505.3400
2405.0000;17511.9800
2406.0000;17506.8600
2407.0000;17488.1000
2408.0000;17460.6300
2409.0000;17431.0000
2410.0000;17409.5400
2411.0000;17403.4700
2412.0000;17397.5700
2413.0000;17384.5100
2414.0000;17373.0400
2415.0000;17363.4900
2416.0000;17369.0200
2417.0000;17395.4600
2418.0000;17429.2000
2419.0000;17452.0300
2420.0000;17461.3800
2421.0000;17466.4700
2422.0000;17464.4900
2423.0000;17472.2200
2424.0000;17480.1900
2425.0000;17472.9500
2426.0000;17450.4200
2427.0000;17426.5300
2428.0000;17409.5400
2429.0000;17408.7800
2430.0000;17427.2000
2431.0000;17444.2700
2432.0000;17446.4800
2433.0000;17432.9300
2434.0000;17404.2800
2435.0000;17370.5100
2436.0000;17344.9500
2437.0000;17327.4400
2438.0000;17307.0900
2439.0000;17297.0100
2440.0000;17291.2000
2441.0000;17297.4100
2442.0000;17315.1400
2443.0000;17333.6200
2444.0000;17324.3400
2445.0000;17294.5700
2446.0000;17287.8800
2447.0000;17308.5300
2448.0000;17326.2900
2449.0000;17332.8100
2450.0000;17346.1000
2451.0000;17368.2000
2452.0000;17375.3600
2453.0000;17356.7800
2454.0000;17332.6100
2455.0000;17316.5300
2456.0000;17321.1100
2457.0000;17353.5900
2458.0000;17398.6000
2459.0000;17438.2300
2460.0000;17453.5100
2461.0000;17444.5500
2462.0000;17406.8400
2463.0000;17356.8300
2464.0000;17316.0500
2465.0000;17314.9900
2466.0000;17346.4500
2467.0000;17337.6300
2468.0000;17290.1200
2469.0000;17252.9400
2470.0000;17243.1300
2471.0000;17238.0800
2472.0000;17234.3100
2473.0000;17235.6000
2474.0000;17240.6400
2475.0000;17251.0000
2476.0000;17265.2100
2477.0000;17275.5100
2478.0000;17272.7800
2479.0000;17280.8800
2480.0000;17328.7900
2481.0000;17371.3800
2482.0000;17360.8100
2483.0000;17325.1700
2484.0000;17324.6100
2485.0000;17340.1500
2486.0000;17341.6500
2487.0000;17332.2300
2488.0000;17321.4100
2489.0000;17309.4500
2490.0000;17294.1500
2491.0000;17277.9900
2492.0000;17258.0300
2493.0000;17238.0700
2494.0000;17217.3100
2495.0000;17199.8100
2496.0000;17184.5600
2497.0000;17173.5300
2498.0000;17173.8500
2499.0000;17186.9100
2500.0000;17202.5400
2501.0000;17209.4800
2502.0000;17220.8400
2503.0000;17247.8200
2504.0000;17270.3800
2505.0000;17275.7300
2506.0000;17269.7000
2507.0000;17272.4400
2508.0000;17273.7500
2509.0000;17270.1800
2510.0000;17261.2900
2511.0000;17248.4400
2512.0000;17233.8600
2513.0000;17215.5000
2514.0000;17202.5500
2515.0000;17206.1600
2516.0000;17222.1800
2517.0000;17218.5600
2518.0000;17191.9900
2519.0000;17156.7300
2520.0000;17124.2600
2521.0000;17112.0600
2522.0000;17128.5100
2523.0000;17140.5700
2524.0000;17132.8000
2525.0000;17128.1200
2526.0000;17136.8600
2527.0000;17136.2200
2528.0000;17113.0600
2529.0000;17085.4800
2530.0000;17066.6500
2531.0000;17054.0300
2532.0000;17042.4400
2533.0000;17034.5200
2534.0000;17021.8500
2535.0000;17010.6600
2536.0000;16994.4100
2537.0000;16986.3500
2538.0000;16998.6800
2539.0000;17015.6200
2540.0000;16996.8500
2541.0000;16966.3200
2542.0000;16982.0400
2543.0000;17023.3000
2544.0000;17016.4900
2545.0000;16974.3000
2546.0000;16973.1300
2547.0000;17014.0300
2548.0000;17033.2600
2549.0000;17019.3100
2550.0000;17002.4600
2551.0000;16990.1800
2552.0000;16980.8500
2553.0000;16976.7600
2554.0000;16975.6600
2555.0000;16975.9600
2556.0000;16970.1300
2557.0000;16953.3900
2558.0000;16956.1200
2559.0000;16994.7300
2560.0000;17024.3000
2561.0000;17011.4900
2562.0000;16977.9100
2563.0000;16947.4500
2564.0000;16918.4800
2565.0000;16892.7900
2566.0000;16869.2500
2567.0000;16820.8300
2568.0000;16792.5200
2569.0000;16809.6100
2570.0000;16857.7600
2571.0000;16894.7900
2572.0000;16910.9400
2573.0000;16899.6400
2574.0000;16872.6400
2575.0000;16877.2500
2576.0000;16900.0500
2577.0000;16905.0500
2578.0000;16897.9200
2579.0000;16910.1200
2580.0000;16928.7600
2581.0000;16910.3500
2582.0000;16863.6100
2583.0000;16842.2100
2584.0000;16859.8400
2585.0000;16905.7800
2586.0000;16961.3800
2587.0000;16961.9200
2588.0000;16893.7000
2589.0000;16840.9100
2590.0000;16834.2700
2591.0000;16831.2700
2592.0000;16820.4800
2593.0000;16798.5400
2594.0000;16763.6000
2595.0000;16736.2900
2596.0000;16728.5600
2597.0000;16719.4300
2598.0000;16695.7100
2599.0000;16676.0100
2600.0000;16665.4600
2601.0000;16678.5400
2602.0000;16722.5400
2603.0000;16754.3600
2604.0000;16732.2600
2605.0000;16704.6100
2606.0000;16726.7500
2607.0000;16747.0300
2608.0000;16712.0000
2609.0000;16678.2900
2610.0000;16706.2200
2611.0000;16756.3900
2612.0000;16774.2900
2613.0000;16777.1500
2614.0000;16792.8600
2615.0000;16813.5700
2616.0000;16853.8000
2617.0000;16879.4000
2618.0000;16857.5300
2619.0000;16802.6900
2620.0000;16762.6700
2621.0000;16742.5200
2622.0000;16728.3100
2623.0000;16727.9300
2624.0000;16722.2300
2625.0000;16723.0700
2626.0000;16749.0700
2627.0000;16785.9600
2628.0000;16793.3100
2629.0000;16772.7300
2630.0000;16765.2800
2631.0000;16775.5300
2632.0000;16801.1700
2633.0000;16831.8200
2634.0000;16835.8300
2635.0000;16809.5500
2636.0000;16787.8100
2637.0000;16776.2700
2638.0000;16749.1800
2639.0000;16711.0100
2640.0000;16679.9700
2641.0000;16671.2800
2642.0000;16686.6600
2643.0000;16725.8000
2644.0000;16764.6200
2645.0000;16788.2300
2646.0000;16797.7100
2647.0000;16790.1800
2648.0000;16781.7100
2649.0000;16780.3800
2650.0000;16776.5500
2651.0000;16767.2200
2652.0000;16734.8600
2653.0000;16676.4400
2654.0000;16649.5000
2655.0000;16680.6200
2656.0000;16700.8800
2657.0000;16674.1300
2658.0000;16653.2100
2659.0000;16665.0700
2660.0000;16682.9000
2661.0000;16690.3400
2662.0000;16704.7900
2663.0000;16733.9300
2664.0000;16737.1800
2665.0000;16690.4100
2666.0000;16637.8600
2667.0000;16611.6900
2668.0000;16606.8300
2669.0000;16617.4000
2670.0000;16626.7400
2671.0000;16613.4700
2672.0000;16590.1900
2673.0000;16564.3100
2674.0000;16555.3800
2675.0000;16580.3200
2676.0000;16606.4000
2677.0000;16605.4200
2678.0000;16576.8000
2679.0000;16521.4700
2680.0000;16479.7200
2681.0000;16493.9300
2682.0000;16521.0400
2683.0000;16508.6300
2684.0000;16489.8000
2685.0000;16487.0800
2686.0000;16499.2000
2687.0000;16530.1300
2688.0000;16545.9500
2689.0000;16512.2100
2690.0000;16467.1200
2691.0000;16460.9400
2692.0000;16466.6600
2693.0000;16451.3500
2694.0000;16430.0900
2695.0000;16404.0500
2696.0000;16388.8000
2697.0000;16388.2000
2698.0000;16408.1000
2699.0000;16443.8400
2700.0000;16473.9000
2701.0000;16475.5600
2702.0000;16459.2600
2703.0000;16454.2200
2704.0000;16447.3500
2705.0000;16432.0800
2706.0000;16413.7800
2707.0000;16395.4600
2708.0000;16377.9100
2709.0000;16355.0400
2710.0000;16331.6400
2711.0000;16294.8300
2712.0000;16275.8900
2713.0000;16296.4600
2714.0000;16325.7200
2715.0000;16309.2700
2716.0000;16283.9900
2717.0000;16290.1500
2718.0000;16313.6400
2719.0000;16347.7700
2720.0000;16354.4700
2721.0000;16288.2400
2722.0000;16214.6400
2723.0000;16224.2900
2724.0000;16252.1600
2725.0000;16195.1000
2726.0000;16137.7100
2727.0000;16153.7700
2728.0000;16197.4700
2729.0000;16203.1200
2730.0000;16197.2700
2731.0000;16201.2000
2732.0000;16213.2400
2733.0000;16235.6700
2734.0000;16265.1400
2735.0000;16306.2700
2736.0000;16325.6400
2737.0000;16298.6200
2738.0000;16261.8900
2739.0000;16269.5400
2740.0000;16278.3500
2741.0000;16240.3500
2742.0000;16208.5400
2743.0000;16226.5800
2744.0000;16252.4800
2745.0000;16234.7900
2746.0000;16225.9900
2747.0000;16272.6000
2748.0000;16314.4700
2749.0000;16304.7300
2750.0000;16276.8200
2751.0000;16268.9800
2752.0000;16255.9700
2753.0000;16222.6200
2754.0000;16197.6800
2755.0000;16200.9700
2756.0000;16191.1000
2757.0000;16130.0900
2758.0000;16095.2600
2759.0000;16140.3100
2760.0000;16182.0300
2761.0000;16155.2300
2762.0000;16129.8300
2763.0000;16149.4900
2764.0000;16158.9400
2765.0000;16128.8800
2766.0000;16094.6300
2767.0000;16078.6000
2768.0000;16085.3000
2769.0000;16116.0600
2770.0000;16130.0600
2771.0000;16102.9100
2772.0000;16078.1500
2773.0000;16079.4900
2774.0000;16098.5400
2775.0000;16129.0000
2776.0000;16134.7500
2777.0000;16100.7500
2778.0000;16067.2200
2779.0000;16053.9100
2780.0000;16063.7900
2781.0000;16093.5900
2782.0000;16097.0800
2783.0000;16062.3500
2784.0000;16050.8400
2785.0000;16076.9700
2786.0000;16099.5400
2787.0000;16106.8500
2788.0000;16116.0200
2789.0000;16121.0100
2790.0000;16100.0700
2791.0000;16054.8300
2792.0000;16003.7400
2793.0000;15965.2600
2794.0000;15945.7300
2795.0000;15949.6900
2796.0000;15938.8600
2797.0000;15924.2600
2798.0000;15944.1700
2799.0000;15983.6900
2800.0000;15979.4300
2801.0000;15951.3200
2802.0000;15979.2100
2803.0000;16033.9000
2804.0000;16032.8400
2805.0000;15994.9700
2806.0000;15995.7800
2807.0000;16007.9000
2808.0000;15972.4300
2809.0000;15928.7700
2810.0000;15938.3900
2811.0000;15969.9100
2812.0000;15957.4900
2813.0000;15937.4900
2814.0000;15956.1100
2815.0000;15992.4900
2816.0000;16021.3500
2817.0000;16039.6100
2818.0000;16053.0300
2819.0000;16051.0200
2820.0000;16037.6100
2821.0000;16022.2300
2822.0000;16020.4800
2823.0000;16024.7900
2824.0000;16030.0600
2825.0000;16020.9800
2826.0000;15985.7700
2827.0000;15964.5300
2828.0000;15982.5100
2829.0000;16001.4600
2830.0000;15998.0700
2831.0000;16007.3500
2832.0000;16039.4200
2833.0000;16059.7500
2834.0000;16052.3200
2835.0000;16024.7200
2836.0000;15985.9300
2837.0000;15960.9600
2838.0000;15966.0700
2839.0000;15995.3000
2840.0000;16035.5200
2841.0000;16038.5200
2842.0000;15996.7000
2843.0000;15959.8300
2844.0000;15931.4200
2845.0000;15868.6000
2846.0000;15807.9200
2847.0000;15813.2300
2848.0000;15871.9200
2849.0000;15883.6600
2850.0000;15865.5200
2851.0000;15867.5700
2852.0000;15884.6600
2853.0000;15908.4600
2854.0000;15936.3100
2855.0000;15973.4800
2856.0000;15990.8000
2857.0000;15976.5100
2858.0000;15929.0400
2859.0000;15860.3000
2860.0000;15812.7200
2861.0000;15823.4700
2862.0000;15835.4700
2863.0000;15784.1000
2864.0000;15750.9600
2865.0000;15786.6300
2866.0000;15838.9900
2867.0000;15868.2500
2868.0000;15888.6600
2869.0000;15898.7600
2870.0000;15868.3600
2871.0000;15799.0800
2872.0000;15787.4100
2873.0000;15854.6900
2874.0000;15866.9400
2875.0000;15798.9800
2876.0000;15745.4200
2877.0000;15724.0500
2878.0000;15688.1300
2879.0000;15660.4900
2880.0000;15686.4400
2881.0000;15751.3900
2882.0000;15780.1800
2883.0000;15771.2100
2884.0000;15759.1000
2885.0000;15745.9200
2886.0000;15747.4900
2887.0000;15758.7900
2888.0000;15770.1900
2889.0000;15771.7200
2890.0000;15752.1700
2891.0000;15729.4600
2892.0000;15726.1300
2893.0000;15724.9200
2894.0000;15708.7800
2895.0000;15699.1100
2896.0000;15706.7300
2897.0000;15719.9400
2898.0000;15730.0900
2899.0000;15745.9300
2900.0000;15768.5400
2901.0000;15798.4500
2902.0000;15830.3900
2903.0000;15866.9600
2904.0000;15891.0100
2905.0000;15863.1700
2906.0000;15793.0900
2907.0000;15750.3500
2908.0000;15751.4200
2909.0000;15765.3500
2910.0000;15780.3200
2911.0000;15754.1800
2912.0000;15710.9000
2913.0000;15699.8700
2914.0000;15711.7800
2915.0000;15712.2200
2916.0000;15717.0800
2917.0000;15734.5200
2918.0000;15752.5700
2919.0000;15760.7800
2920.0000;15764.1500
2921.0000;15768.9400
2922.0000;15777.2100
2923.0000;15791.7900
2924.0000;15795.9800
2925.0000;15782.5000
2926.0000;15763.0500
2927.0000;15744.7900
2928.0000;15726.8400
2929.0000;15713.4800
2930.0000;15705.0200
2931.0000;15695.4100
2932.0000;15646.4700
2933.0000;15582.1300
2934.0000;15550.4000
2935.0000;15559.1300
2936.0000;15573.4500
2937.0000;15589.7200
2938.0000;15582.7800
2939.0000;15570.3200
2940.0000;15578.0300
2941.0000;15591.7400
2942.0000;15599.7700
2943.0000;15591.7000
2944.0000;15560.3900
2945.0000;15532.7600
2946.0000;15526.8700
2947.0000;15516.6000
2948.0000;15493.3000
2949.0000;15483.0700
2950.0000;15492.0000
2951.0000;15497.3300
2952.0000;15490.3800
2953.0000;15460.6500
2954.0000;15417.8500
2955.0000;15382.8900
2956.0000;15369.0000
2957.0000;15361.1800
2958.0000;15371.7200
2959.0000;15392.1900
2960.0000;15426.9000
2961.0000;15478.4100
2962.0000;15511.6200
2963.0000;15502.9600
2964.0000;15466.6300
2965.0000;15428.9000
2966.0000;15405.7000
2967.0000;15412.4500
2968.0000;15395.0900
2969.0000;15342.3300
2970.0000;15346.3900
2971.0000;15420.2200
2972.0000;15447.3900
2973.0000;15420.6900
2974.0000;15434.9400
2975.0000;15472.7300
2976.0000;15474.5400
2977.0000;15439.3800
2978.0000;15386.3300
2979.0000;15334.9400
2980.0000;15300.6600
2981.0000;15300.0500
2982.0000;15328.4600
2983.0000;15352.6500
2984.0000;15335.0300
2985.0000;15322.4200
2986.0000;15340.7200
2987.0000;15359.8500
2988.0000;15368.6900
2989.0000;15379.5200
2990.0000;15391.0500
2991.0000;15398.6700
2992.0000;15399.8900
2993.0000;15401.2100
2994.0000;15401.1400
2995.0000;15402.1300
2996.0000;15398.3500
2997.0000;15382.7900
2998.0000;15363.3900
2999.0000;15347.1200
3000.0000;15337.8700
3001.0000;15332.8700
3002.0000;15341.7800
3003.0000;15364.9400
3004.0000;15376.2900
3005.0000;15362.0400
3006.0000;15337.8700
3007.0000;15311.5400
3008.0000;15284.2500
3009.0000;15260.1900
3010.0000;15217.8800
3011.0000;15185.2500
3012.0000;15200.5200
3013.0000;15245.8300
3014.0000;15259.2200
3015.0000;15265.5100
3016.0000;15300.8300
3017.0000;15321.2600
3018.0000;15299.7300
3019.0000;15273.4000
3020.0000;15270.0600
3021.0000;15264.1000
3022.0000;15246.6300
3023.0000;15209.0300
3024.0000;15160.2400
3025.0000;15127.4200
3026.0000;15120.6600
3027.0000;15110.6900
3028.0000;15106.3900
3029.0000;15111.0400
3030.0000;15115.2700
3031.0000;15098.5800
3032.0000;15081.5400
3033.0000;15085.3000
3034.0000;15085.8400
3035.0000;15066.8100
3036.0000;15051.5100
3037.0000;15051.1900
3038.0000;15050.4600
3039.0000;15046.9000
3040.0000;15043.7700
3041.0000;15046.5600
3042.0000;15071.9900
3043.0000;15097.5800
3044.0000;15071.8200
3045.0000;15028.1600
3046.0000;15030.7300
3047.0000;15051.8500
3048.0000;15064.9700
3049.0000;15041.5200
3050.0000;14963.0000
3051.0000;14916.8400
3052.0000;14943.6000
3053.0000;14973.5200
3054.0000;14984.5100
3055.0000;14979.8500
3056.0000;14961.2900
3057.0000;14956.1500
3058.0000;14947.4000
3059.0000;14881.4500
3060.0000;14827.0600
3061.0000;14869.9300
3062.0000;14914.3000
3063.0000;14859.2600
3064.0000;14822.6700
3065.0000;14869.2000
3066.0000;14910.8100
3067.0000;14912.1000
3068.0000;14913.7400
3069.0000;14915.6300
3070.0000;14900.5500
3071.0000;14881.1600
3072.0000;14889.1000
3073.0000;14912.2000
3074.0000;14918.9200
3075.0000;14919.2800
3076.0000;14924.2800
3077.0000;14929.8700
3078.0000;14936.6200
3079.0000;14917.9300
3080.0000;14870.6300
3081.0000;14849.7200
3082.0000;14862.6600
3083.0000;14838.3600
3084.0000;14794.8500
3085.0000;14792.7300
3086.0000;14825.5600
3087.0000;14857.7900
3088.0000;14877.2800
3089.0000;14869.0400
3090.0000;14844.5000
3091.0000;14821.5100
3092.0000;14813.5900
3093.0000;14827.9400
3094.0000;14839.8000
3095.0000;14836.9900
3096.0000;14803.6900
3097.0000;14763.4700
3098.0000;14781.2700
3099.0000;14828.8000
3100.0000;14833.7700
3101.0000;14818.4100
3102.0000;14811.0000
3103.0000;14802.3500
3104.0000;14792.5600
3105.0000;14791.5100
3106.0000;14801.3000
3107.0000;14805.7700
3108.0000;14799.0700
3109.0000;14780.7300
3110.0000;14762.1800
3111.0000;14768.7000
3112.0000;14779.0100
3113.0000;14757.0100
3114.0000;14717.1400
3115.0000;14673.7900
3116.0000;14644.8400
3117.0000;14643.1300
3118.0000;14642.1900
3119.0000;14636.8300
3120.0000;14642.0900
3121.0000;14660.1100
3122.0000;14694.4700
3123.0000;14710.3200
3124.0000;14655.1700
3125.0000;14588.3900
3126.0000;14592.3700
3127.0000;14603.8300
3128.0000;14578.8500
3129.0000;14562.6400
3130.0000;14569.1300
3131.0000;14570.8800
3132.0000;14560.9600
3133.0000;14542.2000
3134.0000;14510.3400
3135.0000;14449.9300
3136.0000;14395.5400
3137.0000;14366.3100
3138.0000;14379.0800
3139.0000;14424.9100
3140.0000;14476.0100
3141.0000;14502.7200
3142.0000;14511.3400
3143.0000;14498.8700
3144.0000;14485.5800
3145.0000;14472.1200
3146.0000;14453.2200
3147.0000;14434.7700
3148.0000;14412.8600
3149.0000;14407.7200
3150.0000;14428.5200
3151.0000;14422.6600
3152.0000;14370.6800
3153.0000;14352.5300
3154.0000;14381.3600
3155.0000;14392.0700
3156.0000;14383.9100
3157.0000;14375.1500
3158.0000;14369.2600
3159.0000;14373.4100
3160.0000;14376.1900
3161.0000;14367.1300
3162.0000;14362.6300
3163.0000;14367.1700
3164.0000;14351.7900
3165.0000;14322.6000
3166.0000;14319.9000
3167.0000;14337.5400
3168.0000;14338.0200
3169.0000;14325.0400
3170.0000;14301.0700
3171.0000;14287.0000
3172.0000;14297.9500
3173.0000;14316.2100
3174.0000;14329.1400
3175.0000;14317.2500
3176.0000;14288.3700
3177.0000;14292.8200
3178.0000;14311.1200
3179.0000;14292.0800
3180.0000;14261.6200
3181.0000;14239.9500
3182.0000;14260.4400
3183.0000;14332.3800
3184.0000;14364.0900
3185.0000;14329.1100
3186.0000;14316.4100
3187.0000;14317.4800
3188.0000;14274.7800
3189.0000;14226.0900
3190.0000;14216.4600
3191.0000;14235.3800
3192.0000;14262.4600
3193.0000;14259.1700
3194.0000;14213.0000
3195.0000;14202.6400
3196.0000;14231.7100
3197.0000;14228.4600
3198.0000;14196.9000
3199.0000;14155.2100
3200.0000;14131.9800
3201.0000;14154.7500
3202.0000;14167.0600
3203.0000;14135.2400
3204.0000;14111.9900
3205.0000;14112.5500
3206.0000;14115.7700
3207.0000;14116.5000
3208.0000;14100.0200
3209.0000;14084.6400
3210.0000;14094.7500
3211.0000;14096.9200
3212.0000;14068.5000
3213.0000;14062.1300
3214.0000;14092.2700
3215.0000;14118.8900
3216.0000;14129.6600
3217.0000;14135.2300
3218.0000;14122.3200
3219.0000;14086.8300
3220.0000;14053.1700
3221.0000;14044.4400
3222.0000;14048.7600
3223.0000;14055.9500
3224.0000;14041.5100
3225.0000;14004.7000
3226.0000;13959.3600
3227.0000;13923.8500
3228.0000;13899.9800
3229.0000;13901.1000
3230.0000;13920.4800
3231.0000;13914.9500
3232.0000;13872.1500
3233.0000;13883.3700
3234.0000;13940.5400
3235.0000;13938.7100
3236.0000;13899.2100
3237.0000;13890.7300
3238.0000;13880.2800
3239.0000;13846.1600
3240.0000;13826.3900
3241.0000;13836.6800
3242.0000;13840.2500
3243.0000;13837.0800
3244.0000;13859.9900
3245.0000;13877.6700
3246.0000;13838.2300
3247.0000;13785.8800
3248.0000;13763.9600
3249.0000;13747.5200
3250.0000;13732.3800
3251.0000;13733.1200
3252.0000;13752.8400
3253.0000;13779.3500
3254.0000;13801.0500
3255.0000;13805.8700
3256.0000;13813.3800
3257.0000;13843.9200
3258.0000;13859.8200
3259.0000;13848.7200
3260.0000;13843.2900
3261.0000;13837.0700
3262.0000;13799.3400
3263.0000;13752.9600
3264.0000;13727.7100
3265.0000;13707.3900
3266.0000;13679.5400
3267.0000;13678.2600
3268.0000;13707.1100
3269.0000;13728.6100
3270.0000;13736.1000
3271.0000;13741.6100
3272.0000;13742.6000
3273.0000;13748.6000
3274.0000;13724.1000
3275.0000;13663.9200
3276.0000;13671.7100
3277.0000;13741.9700
3278.0000;13718.3600
3279.0000;13647.6000
3280.0000;13652.4500
3281.0000;13692.4100
3282.0000;13724.6700
3283.0000;13738.2700
3284.0000;13723.6000
3285.0000;13696.2600
3286.0000;13672.5800
3287.0000;13678.9300
3288.0000;13701.8800
3289.0000;13712.0300
3290.0000;13698.3600
3291.0000;13657.4800
3292.0000;13610.0100
3293.0000;13565.9700
3294.0000;13490.2600
3295.0000;13420.7100
3296.0000;13381.2600
3297.0000;13381.3500
3298.0000;13396.7100
3299.0000;13407.0800
3300.0000;13395.7500
3301.0000;13375.5500
3302.0000;13357.4600
3303.0000;13352.1900
3304.0000;13365.5700
3305.0000;13391.4900
3306.0000;13413.4400
3307.0000;13417.1600
3308.0000;13426.4000
3309.0000;13436.4100
3310.0000;13404.8300
3311.0000;13371.6000
3312.0000;13423.9300
3313.0000;13467.9300
3314.0000;13422.4100
3315.0000;13375.8700
3316.0000;13365.3800
3317.0000;13363.5000
3318.0000;13372.0200
3319.0000;13389.1800
3320.0000;13387.5600
3321.0000;13338.2600
3322.0000;13307.1100
3323.0000;13330.1600
3324.0000;13350.6700
3325.0000;13349.7700
3326.0000;13313.6700
3327.0000;13270.1900
3328.0000;13268.9000
3329.0000;13261.8700
3330.0000;13220.7300
3331.0000;13222.1300
3332.0000;13265.0000
3333.0000;13253.9300
3334.0000;13214.6400
3335.0000;13215.0600
3336.0000;13233.7900
3337.0000;13252.4900
3338.0000;13247.9800
3339.0000;13221.1100
3340.0000;13232.3800
3341.0000;13258.8400
3342.0000;13238.0700
3343.0000;13205.0800
3344.0000;13195.6500
3345.0000;13190.6200
3346.0000;13185.8900
3347.0000;13180.3900
3348.0000;13179.5500
3349.0000;13187.7200
3350.0000;13207.6100
3351.0000;13237.2800
3352.0000;13246.3000
3353.0000;13227.4000
3354.0000;13238.5300
3355.0000;13271.9900
3356.0000;13283.8100
3357.0000;13285.2100
3358.0000;13298.3400
3359.0000;13268.8400
3360.0000;13190.4500
3361.0000;13139.0000
3362.0000;13143.5800
3363.0000;13192.9700
3364.0000;13227.7700
3365.0000;13164.8800
3366.0000;13122.5700
3367.0000;13152.6400
3368.0000;13171.6900
3369.0000;13167.6000
3370.0000;13148.8400
3371.0000;13135.5900
3372.0000;13154.1700
3373.0000;13172.0400
3374.0000;13170.2300
3375.0000;13152.8800
3376.0000;13121.9300
3377.0000;13083.8300
3378.0000;13057.4500
3379.0000;13052.8400
3380.0000;13075.8000
3381.0000;13109.5200
3382.0000;13084.8200
3383.0000;13016.9500
3384.0000;12987.0900
3385.0000;12994.8300
3386.0000;13025.4100
3387.0000;13043.8300
3388.0000;13034.1000
3389.0000;13047.3000
3390.0000;13066.8500
3391.0000;13051.6900
3392.0000;13016.4000
3393.0000;12982.1800
3394.0000;12976.4400
3395.0000;13003.3100
3396.0000;13006.2400
3397.0000;12993.5800
3398.0000;13000.7200
3399.0000;13007.0800
3400.0000;12998.9800
3401.0000;12980.0600
3402.0000;12958.8700
3403.0000;12947.2600
3404.0000;12955.1000
3405.0000;12984.2300
3406.0000;12991.9500
3407.0000;12950.2600
3408.0000;12903.5200
3409.0000;12875.2400
3410.0000;12877.5700
3411.0000;12889.6100
3412.0000;12866.1900
3413.0000;12834.1700
3414.0000;12810.0300
3415.0000;12788.1400
3416.0000;12765.6800
3417.0000;12708.3500
3418.0000;12666.8000
3419.0000;12677.0600
3420.0000;12711.1300
3421.0000;12741.8000
3422.0000;12736.5400
3423.0000;12713.4000
3424.0000;12734.9700
3425.0000;12760.5100
3426.0000;12757.9200
3427.0000;12749.8900
3428.0000;12736.8300
3429.0000;12694.4900
3430.0000;12658.5100
3431.0000;12673.7300
3432.0000;12691.8100
3433.0000;12682.2200
3434.0000;12685.1900
3435.0000;12698.0600
3436.0000;12700.0400
3437.0000;12687.8000
3438.0000;12663.8300
3439.0000;12641.7800
3440.0000;12633.6200
3441.0000;12642.1600
3442.0000;12653.4500
3443.0000;12632.9000
3444.0000;12611.5600
3445.0000;12612.9800
3446.0000;12626.5400
3447.0000;12647.5000
3448.0000;12672.8100
3449.0000;12689.0700
3450.0000;12690.4900
3451.0000;12665.2200
3452.0000;12620.8400
3453.0000;12585.4900
3454.0000;12570.6000
3455.0000;12557.3300
3456.0000;12558.2600
3457.0000;12568.6400
3458.0000;12581.8600
3459.0000;12589.8000
3460.0000;12587.0000
3461.0000;12574.7900
3462.0000;12560.5600
3463.0000;12559.0900
3464.0000;12575.8100
3465.0000;12599.8800
3466.0000;12610.2000
3467.0000;12582.5500
3468.0000;12542.5200
3469.0000;12519.5800
3470.0000;12516.1500
3471.0000;12525.0900
3472.0000;12500.3300
3473.0000;12472.1400
3474.0000;12475.4400
3475.0000;12496.6800
3476.0000;12521.7000
3477.0000;12529.7500
3478.0000;12514.5800
3479.0000;12482.4400
3480.0000;12472.7500
3481.0000;12507.1400
3482.0000;12504.9800
3483.0000;12460.6900
3484.0000;12421.3000
3485.0000;12397.0600
3486.0000;12390.6300
3487.0000;12376.6400
3488.0000;12352.1400
3489.0000;12342.3300
3490.0000;12346.8200
3491.0000;12349.6100
3492.0000;12339.3800
3493.0000;12313.7800
3494.0000;12311.1000
3495.0000;12327.6000
3496.0000;12324.9200
3497.0000;12327.1800
3498.0000;12347.2900
3499.0000;12347.0400
3500.0000;12321.2600
3501.0000;12295.4700
3502.0000;12275.6300
3503.0000;12264.5000
3504.0000;12277.7900
3505.0000;12305.7800
3506.0000;12285.6200
3507.0000;12249.0000
3508.0000;12262.3100
3509.0000;12273.2300
3510.0000;12257.3100
3511.0000;12252.8300
3512.0000;12250.7200
3513.0000;12221.5800
3514.0000;12179.6900
3515.0000;12142.2900
3516.0000;12136.6900
3517.0000;12156.8000
3518.0000;12137.6500
3519.0000;12121.2200
3520.0000;12143.7900
3521.0000;12182.5000
3522.0000;12217.2500
3523.0000;12232.7800
3524.0000;12216.1300
3525.0000;12174.7300
3526.0000;12145.5700
3527.0000;12144.4400
3528.0000;12130.6000
3529.0000;12110.3000
3530.0000;12087.8600
3531.0000;12083.4800
3532.0000;12100.5400
3533.0000;12108.8300
3534.0000;12099.8300
3535.0000;12075.4600
3536.0000;12047.8000
3537.0000;12029.1000
3538.0000;12001.8500
3539.0000;11979.8000
3540.0000;11984.0800
3541.0000;11987.0700
3542.0000;11963.2700
3543.0000;11954.7400
3544.0000;11961.4100
3545.0000;11951.7500
3546.0000;11923.0800
3547.0000;11879.5000
3548.0000;11843.3200
3549.0000;11833.9600
3550.0000;11847.9400
3551.0000;11864.4400
3552.0000;11851.7700
3553.0000;11819.0700
3554.0000;11783.2800
3555.0000;11779.6100
3556.0000;11796.9100
3557.0000;11803.4100
3558.0000;11803.6400
3559.0000;11792.4300
3560.0000;11751.7300
3561.0000;11725.0000
3562.0000;11762.5600
3563.0000;11778.5800
3564.0000;11744.8200
3565.0000;11729.0900
3566.0000;11732.9200
3567.0000;11744.2800
3568.0000;11728.3300
3569.0000;11682.5600
3570.0000;11682.9700
3571.0000;11708.7300
3572.0000;11699.2600
3573.0000;11692.9200
3574.0000;11700.9000
3575.0000;11686.7400
3576.0000;11663.3800
3577.0000;11659.3300
3578.0000;11650.9700
3579.0000;11636.2900
3580.0000;11672.6400
3581.0000;11709.0500
3582.0000;11654.0300
3583.0000;11605.6300
3584.0000;11619.4200
3585.0000;11632.3100
3586.0000;11642.6800
3587.0000;11655.6300
3588.0000;11654.7400
3589.0000;11633.9700
3590.0000;11601.0100
3591.0000;11568.2300
3592.0000;11544.6100
3593.0000;11542.5200
3594.0000;11563.4600
3595.0000;11597.6300
3596.0000;11628.9600
3597.0000;11638.1900
3598.0000;11664.8300
3599.0000;11713.2000
3600.0000;11717.8000
3601.0000;11684.6000
3602.0000;11659.4100
3603.0000;11624.7800
3604.0000;11590.1400
3605.0000;11587.1200
3606.0000;11604.1800
3607.0000;11601.7900
3608.0000;11585.0100
3609.0000;11561.0400
3610.0000;11555.7700
3611.0000;11559.6000
3612.0000;11551.2600
3613.0000;11509.8000
3614.0000;11458.0900
3615.0000;11486.4000
3616.0000;11526.7200
3617.0000;11487.3700
3618.0000;11454.6300
3619.0000;11451.9300
3620.0000;11434.4200
3621.0000;11430.7100
3622.0000;11456.8400
3623.0000;11456.1500
3624.0000;11428.8300
3625.0000;11435.5300
3626.0000;11438.9400
3627.0000;11412.2000
3628.0000;11415.8000
3629.0000;11438.2000
3630.0000;11410.4500
3631.0000;11382.5700
3632.0000;11387.9900
3633.0000;11396.7200
3634.0000;11401.3600
3635.0000;11394.0800
3636.0000;11393.9300
3637.0000;11408.2600
3638.0000;11413.9800
3639.0000;11406.2900
3640.0000;11389.6400
3641.0000;11375.2600
3642.0000;11374.0300
3643.0000;11397.2100
3644.0000;11411.3700
3645.0000;11374.1900
3646.0000;11339.5300
3647.0000;11332.8400
3648.0000;11340.2800
3649.0000;11354.1100
3650.0000;11355.8800
3651.0000;11337.2200
3652.0000;11302.9100
3653.0000;11271.5300
3654.0000;11246.8400
3655.0000;11230.6300
3656.0000;11233.4300
3657.0000;11250.2900
3658.0000;11262.1000
3659.0000;11238.1400
3660.0000;11176.0100
3661.0000;11139.9800
3662.0000;11131.2500
3663.0000;11115.0400
3664.0000;11096.4000
3665.0000;11080.8400
3666.0000;11091.0400
3667.0000;11091.4900
3668.0000;11042.4300
3669.0000;11024.7400
3670.0000;11049.3700
3671.0000;11055.2400
3672.0000;11033.7300
3673.0000;10987.6500
3674.0000;10987.7400
3675.0000;11026.7200
3676.0000;11040.2800
3677.0000;11051.8800
3678.0000;11066.4000
3679.0000;11073.5900
3680.0000;11075.7600
3681.0000;11083.6400
3682.0000;11088.5000
3683.0000;11084.5000
3684.0000;11066.4500
3685.0000;11048.2200
3686.0000;11043.9900
3687.0000;11016.8700
3688.0000;10994.2300
3689.0000;11038.8200
3690.0000;11071.1000
3691.0000;11044.2300
3692.0000;11040.8300
3693.0000;11047.8900
3694.0000;11036.5700
3695.0000;11015.0200
3696.0000;10993.5700
3697.0000;10982.3800
3698.0000;10978.7700
3699.0000;10973.3300
3700.0000;10979.6100
3701.0000;10976.8400
3702.0000;10911.1300
3703.0000;10899.3200
3704.0000;10986.1700
3705.0000;11032.5800
3706.0000;11024.2100
3707.0000;10984.3400
3708.0000;10949.6300
3709.0000;10933.0300
3710.0000;10882.1300
3711.0000;10856.0100
3712.0000;10887.6800
3713.0000;10913.3500
3714.0000;10917.1500
3715.0000;10900.3200
3716.0000;10911.3500
3717.0000;10954.6600
3718.0000;10937.3100
3719.0000;10892.6300
3720.0000;10876.6700
3721.0000;10864.1000
3722.0000;10852.4300
3723.0000;10829.7900
3724.0000;10823.3300
3725.0000;10840.1800
3726.0000;10845.0400
3727.0000;10830.7600
3728.0000;10800.1100
3729.0000;10782.7700
3730.0000;10786.1300
3731.0000;10778.8300
3732.0000;10765.5400
3733.0000;10751.7800
3734.0000;10757.1300
3735.0000;10774.4200
3736.0000;10781.6700
3737.0000;10765.7400
3738.0000;10729.0000
3739.0000;10699.7900
3740.0000;10679.8500
3741.0000;10665.3600
3742.0000;10641.5400
3743.0000;10619.9700
3744.0000;10613.3700
3745.0000;10621.2700
3746.0000;10630.7600
3747.0000;10610.0500
3748.0000;10580.0800
3749.0000;10569.7100
3750.0000;10580.7700
3751.0000;10604.0500
3752.0000;10611.2200
3753.0000;10609.4800
3754.0000;10602.8800
3755.0000;10595.3700
3756.0000;10583.6000
3757.0000;10566.8900
3758.0000;10573.5500
3759.0000;10595.2700
3760.0000;10594.7000
3761.0000;10606.9400
3762.0000;10628.2200
3763.0000;10585.2200
3764.0000;10536.9200
3765.0000;10549.9200
3766.0000;10580.6700
3767.0000;10606.2100
3768.0000;10602.5200
3769.0000;10595.7700
3770.0000;10596.1100
3771.0000;10581.7600
3772.0000;10566.4300
3773.0000;10564.5000
3774.0000;10572.3200
3775.0000;10581.9100
3776.0000;10580.0600
3777.0000;10568.9800
3778.0000;10551.5000
3779.0000;10522.0400
3780.0000;10518.6100
3781.0000;10556.8800
3782.0000;10564.9600
3783.0000;10553.7800
3784.0000;10567.9100
3785.0000;10544.2900
3786.0000;10493.1000
3787.0000;10490.1800
3788.0000;10511.8700
3789.0000;10529.2600
3790.0000;10531.9200
3791.0000;10516.9600
3792.0000;10494.2400
3793.0000;10484.4300
3794.0000;10489.8500
3795.0000;10489.1900
3796.0000;10484.3600
3797.0000;10470.1100
3798.0000;10425.2000
3799.0000;10381.8100
3800.0000;10373.6000
3801.0000;10379.3500
3802.0000;10384.8400
3803.0000;10365.2300
3804.0000;10349.6500
3805.0000;10353.5900
3806.0000;10380.7500
3807.0000;10376.2600
3808.0000;10313.7900
3809.0000;10272.8300
3810.0000;10259.3500
3811.0000;10255.6700
3812.0000;10230.1300
3813.0000;10194.6400
3814.0000;10187.9900
3815.0000;10180.5600
3816.0000;10165.6900
3817.0000;10175.3200
3818.0000;10193.5100
3819.0000;10200.4800
3820.0000;10204.0900
3821.0000;10198.7100
3822.0000;10183.3400
3823.0000;10144.2300
3824.0000;10103.7600
3825.0000;10099.9400
3826.0000;10112.6000
3827.0000;10117.7400
3828.0000;10098.7300
3829.0000;10064.6000
3830.0000;10034.0400
3831.0000;10032.8000
3832.0000;10051.5800
3833.0000;10056.6600
3834.0000;10048.1400
3835.0000;10026.4200
3836.0000;9994.5520
3837.0000;9984.6780
3838.0000;10003.6400
3839.0000;10007.6000
3840.0000;9985.2110
3841.0000;9941.9050
3842.0000;9946.2880
3843.0000;9969.4540
3844.0000;9947.7820
3845.0000;9965.4680
3846.0000;10007.5900
3847.0000;9988.8920
3848.0000;9978.2990
3849.0000;10001.3600
3850.0000;10015.6100
3851.0000;10033.1500
3852.0000;10056.1100
3853.0000;10059.8300
3854.0000;10055.5300
3855.0000;10063.8100
3856.0000;10021.1300
3857.0000;9963.0640
3858.0000;9971.9040
3859.0000;9970.4320
3860.0000;9948.0000
3861.0000;9961.9900
3862.0000;9959.9260
3863.0000;9925.0270
3864.0000;9933.2580
3865.0000;9937.6290
3866.0000;9900.2190
3867.0000;9898.9890
3868.0000;9906.9630
3869.0000;9870.5860
3870.0000;9857.8480
3871.0000;9870.6820
3872.0000;9867.1000
3873.0000;9857.9500
3874.0000;9846.0170
3875.0000;9827.2830
3876.0000;9819.1860
3877.0000;9827.9560
3878.0000;9843.9270
3879.0000;9831.4190
3880.0000;9773.9170
3881.0000;9747.9090
3882.0000;9753.4400
3883.0000;9759.7060
3884.0000;9742.8460
3885.0000;9717.1190
3886.0000;9724.6540
3887.0000;9711.4460
3888.0000;9666.5050
3889.0000;9610.7460
3890.0000;9571.0490
3891.0000;9563.1080
3892.0000;9562.3210
3893.0000;9566.2330
3894.0000;9564.8020
3895.0000;9564.7680
3896.0000;9565.1440
3897.0000;9564.6340
3898.0000;9570.1130
3899.0000;9560.4860
3900.0000;9513.5350
3901.0000;9462.4380
3902.0000;9445.6190
3903.0000;9485.6390
3904.0000;9515.3480
3905.0000;9506.2060
3906.0000;9485.4340
3907.0000;9487.6380
3908.0000;9516.2800
3909.0000;9498.1560
3910.0000;9472.1270
3911.0000;9474.2210
3912.0000;9500.8130
3913.0000;9535.1050
3914.0000;9549.7500
3915.0000;9536.3030
3916.0000;9511.0420
3917.0000;9505.5780
3918.0000;9491.7710
3919.0000;9472.4790
3920.0000;9458.9380
3921.0000;9442.9900
3922.0000;9432.8350
3923.0000;9441.0010
3924.0000;9437.5960
3925.0000;9425.7930
3926.0000;9458.0360
3927.0000;9449.0710
3928.0000;9384.7670
3929.0000;9374.0620
3930.0000;9372.1430
3931.0000;9350.5080
3932.0000;9344.5820
3933.0000;9346.9830
3934.0000;9339.5070
3935.0000;9279.5640
3936.0000;9234.1060
3937.0000;9264.5000
3938.0000;9265.2380
3939.0000;9244.6810
3940.0000;9237.1020
3941.0000;9253.7740
3942.0000;9272.4260
3943.0000;9255.3250
3944.0000;9226.7630
3945.0000;9205.3180
3946.0000;9204.5590
3947.0000;9219.3660
3948.0000;9232.0210
3949.0000;9214.3970
3950.0000;9197.2700
3951.0000;9195.1760
3952.0000;9200.0330
3953.0000;9197.9980
3954.0000;9182.8530
3955.0000;9167.6670
3956.0000;9152.5360
3957.0000;9131.4690
3958.0000;9069.9890
3959.0000;9014.8390
3960.0000;9006.2120
3961.0000;9031.3700
3962.0000;9049.8710
3963.0000;9022.9510
3964.0000;8982.2920
3965.0000;8940.3820
3966.0000;8912.4340
3967.0000;8898.5370
3968.0000;8893.6600
3969.0000;8881.3970
3970.0000;8854.9460
3971.0000;8841.5060
3972.0000;8864.1840
3973.0000;8860.6880
3974.0000;8833.1170
3975.0000;8809.5770
3976.0000;8821.3680
3977.0000;8845.8460
3978.0000;8831.9620
3979.0000;8803.5180
3980.0000;8774.7620
3981.0000;8757.8050
3982.0000;8724.7280
3983.0000;8715.1500
3984.0000;8792.7440
3985.0000;8812.1460
3986.0000;8769.1510
3987.0000;8772.5750
3988.0000;8769.7220
3989.0000;8757.2030
3990.0000;8756.3120
3991.0000;8769.7950
3992.0000;8778.4540
3993.0000;8743.0390
3994.0000;8728.8430
3995.0000;8736.2540
3996.0000;8689.4770
3997.0000;8683.2680
3998.0000;8720.6580
3999.0000;8698.8540
4000.0000;8688.2050
4001.0000;8700.2430
4002.0000;8681.1630
4003.0000;8651.7160
4004.0000;8635.1590
4005.0000;8648.5550
4006.0000;8659.8640
4007.0000;8662.5940
4008.0000;8702.3490
4009.0000;8705.4020
4010.0000;8660.9220
4011.0000;8648.0430
4012.0000;8614.7560
4013.0000;8563.0550
4014.0000;8540.7040
4015.0000;8565.1740
4016.0000;8610.5960
4017.0000;8603.6860
4018.0000;8581.1380
4019.0000;8574.2380
4020.0000;8600.4280
4021.0000;8607.3640
4022.0000;8583.3240
4023.0000;8577.4800
4024.0000;8576.4010
4025.0000;8566.8790
4026.0000;8529.4710
4027.0000;8496.3300
4028.0000;8479.4420
4029.0000;8454.7780
4030.0000;8405.5990
4031.0000;8360.9900
4032.0000;8388.6120
4033.0000;8400.5940
4034.0000;8368.2890
4035.0000;8331.5170
4036.0000;8290.8960
4037.0000;8265.5020
4038.0000;8268.1890
4039.0000;8263.2280
4040.0000;8247.2520
4041.0000;8244.5640
4042.0000;8238.2300
4043.0000;8231.0870
4044.0000;8236.7250
4045.0000;8194.3790
4046.0000;8154.0490
4047.0000;8217.7710
4048.0000;8252.3350
4049.0000;8243.2770
4050.0000;8239.7660
4051.0000;8253.3460
4052.0000;8266.5190
4053.0000;8252.6400
4054.0000;8272.9630
4055.0000;8309.5260
4056.0000;8320.4990
4057.0000;8316.8940
4058.0000;8290.0460
4059.0000;8251.4930
4060.0000;8279.6540
4061.0000;8309.8540
4062.0000;8269.8200
4063.0000;8246.5150
4064.0000;8241.5790
4065.0000;8246.0380
4066.0000;8243.9570
4067.0000;8253.1150
4068.0000;8271.4440
4069.0000;8237.5880
4070.0000;8200.6680
4071.0000;8198.2330
4072.0000;8204.0940
4073.0000;8212.3630
4074.0000;8205.8230
4075.0000;8163.5930
4076.0000;8144.2740
4077.0000;8155.5340
4078.0000;8132.3850
4079.0000;8080.6460
4080.0000;8032.8920
4081.0000;8035.2380
4082.0000;8039.7180
4083.0000;8030.2910
4084.0000;8012.0740
4085.0000;8004.7820
4086.0000;8009.0570
4087.0000;8011.7900
4088.0000;8010.5490
4089.0000;7990.9440
4090.0000;7949.1450
4091.0000;7920.0460
4092.0000;7919.1320
4093.0000;7938.6230
4094.0000;7933.4610
4095.0000;7938.6670
4096.0000;7964.5880
4097.0000;7935.7230
4098.0000;7891.2720
4099.0000;7877.2370
4100.0000;7908.2990
4101.0000;7917.6100
4102.0000;7885.1560
4103.0000;7867.9200
4104.0000;7848.6710
4105.0000;7817.6650
4106.0000;7763.7070
4107.0000;7703.9540
4108.0000;7640.7370
4109.0000;7563.7500
4110.0000;7493.7910
4111.0000;7428.5860
4112.0000;7353.8560
4113.0000;7259.6400
4114.0000;7163.1670
4115.0000;7083.2580
4116.0000;7009.4740
4117.0000;6953.2080
4118.0000;6896.6000
4119.0000;6788.9440
4120.0000;6682.4760
4121.0000;6599.9440
4122.0000;6515.2810
4123.0000;6397.2200
4124.0000;6271.3060
4125.0000;6182.0950
4126.0000;6072.7780
4127.0000;5949.9100
4128.0000;5827.9860
4129.0000;5707.5500
4130.0000;5597.4660
4131.0000;5488.7540
4132.0000;5375.0860
4133.0000;5277.4380
4134.0000;5183.6760
4135.0000;5017.6910
4136.0000;4895.4010
4137.0000;4839.4880
4138.0000;4730.3550
4139.0000;4622.3680
4140.0000;4526.8740
4141.0000;4419.7020
4142.0000;4325.8680
4143.0000;4240.8210
4144.0000;4140.5330
4145.0000;4044.9220
4146.0000;3984.8440
4147.0000;3955.9480
4148.0000;3887.9260
4149.0000;3826.8050
4150.0000;3786.9940
4151.0000;3714.8310
4152.0000;3678.7340
4153.0000;3679.1560
4154.0000;3652.7630
4155.0000;3638.9370
4156.0000;3629.7840
4157.0000;3603.7330
4158.0000;3574.4680
4159.0000;3547.5670
4160.0000;3526.5360
4161.0000;3512.0800
4162.0000;3492.7440
4163.0000;3465.1930
4164.0000;3445.8970
4165.0000;3405.5020
4166.0000;3374.2700
4167.0000;3407.1050
4168.0000;3419.3640
4169.0000;3420.9900
4170.0000;3442.5720
4171.0000;3442.4100
4172.0000;3426.6060
4173.0000;3414.0530
4174.0000;3422.2700
4175.0000;3423.1650
4176.0000;3408.8620
4177.0000;3402.6440
4178.0000;3399.4520
4179.0000;3399.6170
4180.0000;3400.9740
4181.0000;3389.2950
4182.0000;3368.0990
4183.0000;3348.3520
4184.0000;3329.9150
4185.0000;3334.4840
4186.0000;3357.6770
4187.0000;3361.0290
4188.0000;3368.8400
4189.0000;3381.9180
4190.0000;3389.7490
4191.0000;3400.5100
4192.0000;3401.2670
4193.0000;3380.4900
4194.0000;3332.5640
4195.0000;3306.8470
4196.0000;3322.0780
4197.0000;3325.7710
4198.0000;3302.8950
4199.0000;3281.7710
4200.0000;3313.3170
4201.0000;3317.0080
4202.0000;3298.1230
4203.0000;3286.3270
4204.0000;3286.7940
4205.0000;3304.1590
4206.0000;3321.8540
4207.0000;3305.7710
4208.0000;3307.8570
4209.0000;3326.6150
4210.0000;3329.8760
4211.0000;3343.2000
4212.0000;3342.0250
4213.0000;3316.7100
4214.0000;3320.3400
4215.0000;3311.1770
4216.0000;3288.2410
4217.0000;3300.0030
4218.0000;3279.5940
4219.0000;3258.5790
4220.0000;3289.3680
4221.0000;3277.1950
4222.0000;3267.4870
4223.0000;3284.3740
4224.0000;3262.7210
4225.0000;3232.1570
4226.0000;3219.4140
4227.0000;3233.5860
4228.0000;3225.6980
4229.0000;3210.7020
4230.0000;3212.4440
4231.0000;3210.0000
4232.0000;3217.1460
4233.0000;3229.3270
4234.0000;3225.4620
4235.0000;3193.9930
4236.0000;2859.0040
4237.0000;2049.0030
4238.0000;1091.1960
